%OpenBCI Raw EEG Data
%
%Sample Rate = 250.0 Hz
%First Column = SampleIndex
%Other Columns = EEG data in microvolts followed by Accel Data (in G) interleaved with Aux Data
0, -8436.29, -8563.51, -9000.76, -8659.54, -159855.63, -152845.56, -154401.86, -153852.27, -0.12, -0.04, 0.97
1, -8386.64, -8517.83, -8956.32, -8616.40, -159810.72, -152800.88, -154354.59, -153804.19, 0.00, 0.00, 0.00
2, -8396.83, -8527.24, -8965.42, -8625.31, -159819.92, -152810.31, -154364.19, -153813.92, 0.00, 0.00, 0.00
3, -8447.08, -8573.44, -9010.37, -8668.92, -159865.48, -152855.86, -154412.28, -153862.83, 0.00, 0.00, 0.00
4, -8442.57, -8569.14, -9006.25, -8664.79, -159861.39, -152851.75, -154408.33, -153858.81, 0.00, 0.00, 0.00
5, -8393.39, -8524.04, -8962.51, -8622.19, -159816.98, -152807.56, -154361.52, -153811.13, 0.00, 0.00, 0.00
6, -8390.71, -8521.71, -8960.10, -8619.95, -159814.50, -152805.28, -154358.89, -153808.42, 0.00, 0.00, 0.00
7, -8440.00, -8566.95, -9003.98, -8662.69, -159859.05, -152849.78, -154405.88, -153856.22, -0.12, -0.03, 0.97
8, -8449.72, -8575.74, -9012.58, -8670.96, -159867.92, -152858.69, -154415.41, -153865.97, 0.00, 0.00, 0.00
9, -8401.89, -8531.79, -8969.89, -8629.56, -159824.83, -152815.72, -154370.11, -153819.77, 0.00, 0.00, 0.00
10, -8385.73, -8517.04, -8955.56, -8615.70, -159810.14, -152801.38, -154354.59, -153803.98, 0.00, 0.00, 0.00
11, -8428.49, -8556.11, -8993.36, -8652.38, -159848.55, -152839.77, -154395.31, -153845.52, 0.00, 0.00, 0.00
12, -8451.84, -8577.55, -9014.23, -8672.61, -159869.89, -152860.94, -154417.89, -153868.53, 0.00, 0.00, 0.00
13, -8410.45, -8539.48, -8977.44, -8636.80, -159832.53, -152823.91, -154378.59, -153828.50, 0.00, 0.00, 0.00
14, -8382.80, -8514.25, -8952.81, -8613.02, -159807.61, -152799.06, -154352.25, -153801.61, 0.00, 0.00, 0.00
15, -8419.72, -8548.02, -8985.42, -8644.78, -159840.77, -152832.22, -154387.31, -153837.31, 0.00, 0.00, 0.00
16, -8452.27, -8577.84, -9014.39, -8672.88, -159870.20, -152861.56, -154418.56, -153869.20, -0.12, -0.04, 0.97
17, -8419.08, -8547.26, -8984.86, -8644.13, -159840.38, -152831.86, -154387.20, -153837.27, 0.00, 0.00, 0.00
18, -8382.24, -8513.58, -8952.07, -8612.37, -159807.25, -152798.80, -154352.06, -153801.41, 0.00, 0.00, 0.00
19, -8409.78, -8538.75, -8976.35, -8636.09, -159831.94, -152823.59, -154378.17, -153828.02, 0.00, 0.00, 0.00
20, -8453.18, -8578.69, -9015.17, -8673.84, -159871.27, -152862.92, -154419.88, -153870.44, 0.00, 0.00, 0.00
21, -8428.60, -8556.07, -8993.25, -8652.45, -159849.17, -152840.80, -154396.81, -153846.92, 0.00, 0.00, 0.00
22, -8382.89, -8514.20, -8952.52, -8612.89, -159807.91, -152799.77, -154353.23, -153802.61, 0.00, 0.00, 0.00
23, -8402.11, -8531.86, -8969.78, -8629.81, -159825.31, -152817.34, -154371.36, -153821.19, 0.00, 0.00, 0.00
24, -8449.21, -8575.11, -9011.71, -8670.62, -159867.84, -152859.86, -154416.44, -153867.14, 0.00, 0.00, 0.00
25, -8435.37, -8562.33, -8999.21, -8658.46, -159855.36, -152847.45, -154403.59, -153854.14, 0.00, 0.00, 0.00
26, -8385.57, -8516.51, -8954.69, -8615.28, -159810.20, -152802.58, -154356.14, -153805.72, -0.12, -0.04, 0.97
27, -8390.98, -8521.40, -8959.45, -8619.82, -159814.98, -152807.42, -154361.00, -153810.64, 0.00, 0.00, 0.00
28, -8442.50, -8568.81, -9005.56, -8664.65, -159861.73, -152854.20, -154410.30, -153860.94, 0.00, 0.00, 0.00
29, -8443.97, -8570.13, -9006.90, -8666.02, -159863.19, -152855.63, -154411.97, -153862.67, 0.00, 0.00, 0.00
30, -8394.00, -8524.26, -8962.49, -8622.77, -159818.14, -152810.75, -154364.52, -153814.44, 0.00, 0.00, 0.00
31, -8385.91, -8516.84, -8955.05, -8615.61, -159810.59, -152803.34, -154356.58, -153806.23, 0.00, 0.00, 0.00
32, -8433.78, -8560.70, -8997.58, -8657.01, -159853.72, -152846.45, -154402.25, -153852.69, 0.00, 0.00, 0.00
33, -8448.85, -8574.55, -9011.26, -8670.26, -159867.56, -152860.31, -154416.95, -153867.64, 0.00, 0.00, 0.00
34, -8403.99, -8533.58, -8971.45, -8631.64, -159827.28, -152820.14, -154374.38, -153824.39, 0.00, 0.00, 0.00
35, -8384.99, -8516.26, -8954.58, -8615.23, -159810.14, -152803.09, -154356.16, -153805.72, 0.00, 0.00, 0.00
36, -8428.02, -8555.69, -8992.84, -8652.45, -159848.89, -152841.94, -154397.19, -153847.47, -0.11, -0.04, 0.97
37, -8453.23, -8578.73, -9015.17, -8674.17, -159871.66, -152864.84, -154421.53, -153872.23, 0.00, 0.00, 0.00
38, -8413.58, -8542.37, -8979.95, -8639.89, -159836.05, -152829.25, -154384.08, -153834.00, 0.00, 0.00, 0.00
39, -8382.84, -8514.16, -8952.43, -8613.29, -159808.23, -152801.59, -154354.59, -153804.06, 0.00, 0.00, 0.00
40, -8418.14, -8546.57, -8983.81, -8643.80, -159839.98, -152833.38, -154388.09, -153838.17, 0.00, 0.00, 0.00
41, -8451.69, -8577.10, -9013.50, -8672.52, -159870.06, -152863.48, -154420.19, -153870.88, 0.00, 0.00, 0.00
42, -8421.15, -8548.94, -8986.43, -8646.10, -159842.50, -152836.06, -154391.39, -153841.48, 0.00, 0.00, 0.00
43, -8380.65, -8511.90, -8950.29, -8611.05, -159805.94, -152799.69, -154352.73, -153802.27, 0.00, 0.00, 0.00
44, -8405.93, -8534.99, -8972.64, -8632.78, -159828.73, -152822.41, -154376.66, -153826.58, 0.00, 0.00, 0.00
45, -8449.65, -8574.93, -9011.58, -8670.49, -159868.20, -152861.92, -154418.50, -153869.00, 0.00, 0.00, 0.00
46, -8429.63, -8556.56, -8993.76, -8653.23, -159850.17, -152843.95, -154399.63, -153849.89, -0.11, -0.03, 0.97
47, -8383.38, -8514.25, -8952.59, -8613.24, -159808.44, -152802.38, -154355.63, -153805.13, 0.00, 0.00, 0.00
48, -8398.71, -8528.44, -8966.33, -8626.68, -159822.23, -152816.34, -154370.13, -153819.92, 0.00, 0.00, 0.00
49, -8446.97, -8572.72, -9009.29, -8668.39, -159865.86, -152859.94, -154416.19, -153866.97, 0.00, 0.00, 0.00
50, -8438.54, -8564.81, -9001.74, -8661.01, -159858.38, -152852.41, -154408.55, -153859.03, 0.00, 0.00, 0.00
51, -8390.15, -8520.51, -8958.76, -8619.32, -159814.86, -152809.19, -154362.73, -153812.14, 0.00, 0.00, 0.00
52, -8390.22, -8520.35, -8958.38, -8618.97, -159814.45, -152809.06, -154362.39, -153811.83, 0.00, 0.00, 0.00
53, -8439.59, -8565.61, -9002.32, -8661.61, -159859.00, -152853.52, -154409.38, -153859.77, 0.00, 0.00, 0.00
54, -8443.35, -8568.97, -9005.83, -8664.90, -159862.39, -152857.05, -154413.31, -153863.88, 0.00, 0.00, 0.00
55, -8393.35, -8523.10, -8961.26, -8621.54, -159817.31, -152812.14, -154365.97, -153815.56, 0.00, 0.00, 0.00
56, -8384.50, -8515.19, -8953.37, -8614.03, -159809.41, -152804.30, -154357.36, -153806.78, -0.11, -0.03, 0.97
57, -8431.97, -8558.88, -8995.77, -8655.29, -159852.41, -152847.11, -154402.67, -153852.89, 0.00, 0.00, 0.00
58, -8447.15, -8572.63, -9009.18, -8668.10, -159865.92, -152860.72, -154417.33, -153867.86, 0.00, 0.00, 0.00
59, -8401.62, -8530.79, -8968.57, -8628.58, -159824.83, -152819.83, -154374.19, -153823.83, 0.00, 0.00, 0.00
60, -8380.85, -8511.88, -8950.13, -8610.76, -159806.27, -152801.33, -154354.23, -153803.53, 0.00, 0.00, 0.00
61, -8423.84, -8551.46, -8988.51, -8648.25, -159845.19, -152840.31, -154395.30, -153845.33, 0.00, 0.00, 0.00
62, -8451.26, -8576.57, -9012.80, -8671.81, -159870.00, -152865.00, -154421.80, -153872.23, 0.00, 0.00, 0.00
63, -8412.68, -8541.12, -8978.43, -8638.30, -159835.27, -152830.41, -154385.27, -153835.08, 0.00, 0.00, 0.00
64, -8379.47, -8510.74, -8948.83, -8609.60, -159805.16, -152800.56, -154353.56, -153802.80, 0.00, 0.00, 0.00
65, -8410.42, -8538.92, -8976.06, -8636.13, -159832.88, -152828.34, -154382.83, -153832.64, 0.00, 0.00, 0.00
66, -8447.37, -8572.65, -9008.80, -8667.87, -159866.13, -152861.55, -154418.19, -153868.64, -0.11, -0.03, 0.97
67, -8418.78, -8546.43, -8983.37, -8643.17, -159840.31, -152835.95, -154391.30, -153841.22, 0.00, 0.00, 0.00
68, -8376.27, -8507.34, -8945.41, -8606.29, -159801.91, -152797.80, -154350.80, -153799.95, 0.00, 0.00, 0.00
69, -8397.97, -8527.12, -8964.52, -8624.80, -159821.36, -152817.22, -154371.17, -153820.92, 0.00, 0.00, 0.00
70, -8445.09, -8570.42, -9006.72, -8665.86, -159864.19, -152859.94, -154416.33, -153866.83, 0.00, 0.00, 0.00
71, -8427.97, -8554.77, -8991.57, -8651.26, -159848.78, -152844.69, -154400.39, -153850.58, 0.00, 0.00, 0.00
72, -8381.61, -8512.39, -8950.44, -8611.32, -159807.13, -152803.27, -154356.36, -153805.72, 0.00, 0.00, 0.00
73, -8392.61, -8522.34, -8960.08, -8620.67, -159816.89, -152813.08, -154366.55, -153816.20, 0.00, 0.00, 0.00
74, -8440.89, -8566.62, -9002.99, -8662.44, -159860.50, -152856.64, -154412.78, -153863.28, 0.00, 0.00, 0.00
75, -8435.66, -8561.81, -8998.50, -8657.95, -159856.03, -152852.22, -154408.33, -153858.61, 0.00, 0.00, 0.00
76, -8386.24, -8516.51, -8954.47, -8615.12, -159811.53, -152807.83, -154361.33, -153810.70, -0.11, -0.04, 0.98
77, -8385.50, -8515.88, -8953.75, -8614.38, -159810.75, -152807.06, -154360.42, -153809.92, 0.00, 0.00, 0.00
78, -8434.70, -8560.99, -8997.63, -8657.01, -159855.17, -152851.53, -154407.34, -153857.69, 0.00, 0.00, 0.00
79, -8442.28, -8567.94, -9004.44, -8663.56, -159862.22, -152858.66, -154414.94, -153865.41, 0.00, 0.00, 0.00
80, -8394.80, -8524.42, -8962.09, -8622.57, -159819.48, -152816.13, -154369.95, -153819.48, 0.00, 0.00, 0.00
81, -8382.84, -8513.53, -8951.45, -8612.40, -159808.69, -152805.44, -154358.42, -153807.63, 0.00, 0.00, 0.00
82, -8426.00, -8552.92, -8989.63, -8649.48, -159847.44, -152844.17, -154399.52, -153849.48, 0.00, 0.00, 0.00
83, -8445.38, -8570.55, -9006.84, -8666.11, -159865.02, -152861.67, -154418.27, -153868.63, 0.00, 0.00, 0.00
84, -8402.27, -8531.04, -8968.48, -8628.71, -159826.17, -152822.89, -154377.39, -153826.98, 0.00, 0.00, 0.00
85, -8375.85, -8506.69, -8944.68, -8605.58, -159802.20, -152799.06, -154351.86, -153801.20, 0.00, 0.00, 0.00
86, -8416.24, -8543.71, -8980.57, -8640.56, -159838.58, -152835.52, -154390.28, -153840.22, -0.11, -0.04, 0.97
87, -8448.87, -8573.82, -9009.70, -8669.03, -159868.14, -152865.28, -154421.73, -153872.28, 0.00, 0.00, 0.00
88, -8413.02, -8540.80, -8977.78, -8638.08, -159835.83, -152833.11, -154387.83, -153837.73, 0.00, 0.00, 0.00
89, -8374.42, -8505.26, -8943.11, -8604.44, -159800.91, -152798.27, -154350.95, -153800.16, 0.00, 0.00, 0.00
90, -8403.38, -8531.64, -8968.53, -8629.16, -159826.86, -152824.14, -154378.38, -153828.13, 0.00, 0.00, 0.00
91, -8444.44, -8569.28, -9005.18, -8664.72, -159863.98, -152861.36, -154417.77, -153868.28, 0.00, 0.00, 0.00
92, -8420.19, -8547.17, -8983.70, -8643.91, -159842.39, -152839.88, -154395.09, -153845.08, 0.00, 0.00, 0.00
93, -8377.21, -8507.86, -8945.30, -8606.79, -159803.66, -152801.34, -154354.17, -153803.38, 0.00, 0.00, 0.00
94, -8396.41, -8525.31, -8962.20, -8623.24, -159820.72, -152818.56, -154372.25, -153821.77, 0.00, 0.00, 0.00
95, -8440.40, -8565.48, -9001.07, -8661.01, -159860.28, -152857.97, -154414.25, -153864.58, -0.12, -0.03, 0.97
96, -8427.59, -8553.83, -8989.74, -8650.21, -159848.97, -152846.72, -154402.41, -153852.58, 0.00, 0.00, 0.00
97, -8380.76, -8511.03, -8948.21, -8609.87, -159806.88, -152804.83, -154357.95, -153807.20, 0.00, 0.00, 0.00
98, -8389.91, -8519.50, -8956.28, -8617.87, -159815.22, -152813.31, -154366.66, -153815.98, 0.00, 0.00, 0.00
99, -8436.17, -8561.57, -8997.05, -8657.48, -159856.70, -152854.72, -154410.63, -153860.89, 0.00, 0.00, 0.00
100, -8431.82, -8557.34, -8992.98, -8653.34, -159852.56, -152850.66, -154406.69, -153856.91, 0.00, 0.00, 0.00
101, -8383.27, -8512.97, -8949.95, -8611.50, -159809.02, -152807.22, -154360.66, -153810.03, 0.00, 0.00, 0.00
102, -8378.91, -8509.02, -8945.86, -8607.68, -159805.05, -152803.34, -154356.38, -153805.64, 0.00, 0.00, 0.00
103, -8426.54, -8552.54, -8987.99, -8648.67, -159847.89, -152846.16, -154401.64, -153851.88, 0.00, 0.00, 0.00
104, -8438.50, -8563.58, -8998.70, -8659.18, -159858.91, -152857.23, -154413.44, -153863.75, 0.00, 0.00, 0.00
105, -8391.40, -8520.46, -8956.90, -8618.59, -159816.52, -152815.05, -154368.81, -153818.38, -0.12, -0.04, 0.97
106, -8375.87, -8506.29, -8942.96, -8605.29, -159802.47, -152801.19, -154353.92, -153803.23, 0.00, 0.00, 0.00
107, -8420.62, -8547.44, -8982.81, -8644.11, -159843.02, -152841.61, -154396.61, -153846.69, 0.00, 0.00, 0.00
108, -8442.30, -8567.16, -9001.99, -8662.62, -159862.48, -152861.14, -154417.48, -153867.84, 0.00, 0.00, 0.00
109, -8398.09, -8526.32, -8962.36, -8624.02, -159822.50, -152821.22, -154375.48, -153825.23, 0.00, 0.00, 0.00
110, -8370.10, -8500.73, -8937.28, -8599.77, -159797.17, -152796.09, -154348.88, -153798.08, 0.00, 0.00, 0.00
111, -8406.18, -8533.61, -8969.06, -8630.72, -159829.45, -152828.42, -154383.03, -153832.88, 0.00, 0.00, 0.00
112, -8439.44, -8564.07, -8998.63, -8659.54, -159859.56, -152858.52, -154415.02, -153865.42, 0.00, 0.00, 0.00
113, -8406.54, -8533.94, -8969.42, -8631.06, -159829.97, -152829.13, -154383.97, -153833.78, 0.00, 0.00, 0.00
114, -8367.87, -8498.45, -8934.89, -8597.53, -159795.00, -152794.42, -154347.00, -153796.25, 0.00, 0.00, 0.00
115, -8396.23, -8524.46, -8960.03, -8622.10, -159820.48, -152819.98, -154373.86, -153823.63, -0.12, -0.04, 0.97
116, -8438.81, -8563.47, -8997.99, -8658.98, -159859.09, -152858.45, -154414.77, -153865.20, 0.00, 0.00, 0.00
117, -8416.57, -8543.17, -8978.38, -8639.91, -159839.38, -152838.81, -154394.11, -153844.14, 0.00, 0.00, 0.00
118, -8368.36, -8498.71, -8935.02, -8597.82, -159795.56, -152795.20, -154347.97, -153797.20, 0.00, 0.00, 0.00
119, -8384.05, -8513.09, -8948.68, -8611.14, -159809.47, -152809.17, -154362.69, -153812.20, 0.00, 0.00, 0.00
120, -8433.92, -8558.97, -8993.20, -8654.57, -159854.73, -152854.34, -154410.42, -153860.78, 0.00, 0.00, 0.00
121, -8424.80, -8550.77, -8985.31, -8647.02, -159846.81, -152846.45, -154402.30, -153852.34, 0.00, 0.00, 0.00
122, -8373.97, -8504.03, -8939.78, -8602.87, -159800.81, -152800.67, -154353.88, -153803.08, 0.00, 0.00, 0.00
123, -8377.86, -8507.43, -8942.96, -8605.96, -159804.00, -152803.97, -154357.14, -153806.58, 0.00, 0.00, 0.00
124, -8428.55, -8553.99, -8988.22, -8649.99, -159849.97, -152849.78, -154405.59, -153855.81, 0.00, 0.00, 0.00
125, -8429.27, -8554.64, -8988.87, -8650.66, -159850.70, -152850.66, -154406.61, -153856.91, -0.11, -0.04, 0.98
126, -8378.71, -8508.17, -8943.65, -8606.79, -159804.94, -152805.28, -154358.61, -153808.03, 0.00, 0.00, 0.00
127, -8369.88, -8499.94, -8935.56, -8598.89, -159796.86, -152797.28, -154350.13, -153799.27, 0.00, 0.00, 0.00
128, -8419.28, -8545.36, -8979.59, -8641.90, -159841.50, -152841.80, -154397.16, -153847.20, 0.00, 0.00, 0.00
129, -8435.32, -8560.20, -8994.03, -8655.98, -159856.34, -152856.63, -154412.94, -153863.17, 0.00, 0.00, 0.00
130, -8387.54, -8516.13, -8951.16, -8614.32, -159813.02, -152813.44, -154367.38, -153816.78, 0.00, 0.00, 0.00
131, -8367.84, -8498.07, -8933.59, -8597.29, -159795.25, -152795.78, -154348.45, -153797.63, 0.00, 0.00, 0.00
132, -8412.66, -8539.39, -8973.64, -8636.27, -159835.95, -152836.44, -154391.30, -153841.20, 0.00, 0.00, 0.00
133, -8440.09, -8564.61, -8998.23, -8660.29, -159861.02, -152861.55, -154417.83, -153868.22, 0.00, 0.00, 0.00
134, -8399.36, -8527.24, -8961.93, -8625.00, -159824.22, -152824.97, -154379.22, -153828.86, 0.00, 0.00, 0.00
135, -8367.87, -8498.29, -8933.68, -8597.58, -159795.66, -152796.55, -154349.05, -153798.06, -0.11, -0.04, 0.97
136, -8402.29, -8529.74, -8964.08, -8627.28, -159826.56, -152827.50, -154381.80, -153831.36, 0.00, 0.00, 0.00
137, -8436.78, -8561.23, -8994.59, -8656.99, -159857.64, -152858.56, -154414.88, -153865.09, 0.00, 0.00, 0.00
138, -8406.29, -8533.31, -8967.50, -8630.66, -159830.22, -152831.28, -154386.16, -153835.83, 0.00, 0.00, 0.00
139, -8367.31, -8497.60, -8932.85, -8597.04, -159795.13, -152796.23, -154348.88, -153797.98, 0.00, 0.00, 0.00
140, -8395.02, -8523.08, -8957.53, -8621.18, -159820.20, -152821.42, -154375.16, -153824.70, 0.00, 0.00, 0.00
141, -8438.21, -8562.60, -8995.86, -8658.44, -159859.05, -152860.22, -154416.44, -153866.77, 0.00, 0.00, 0.00
142, -8416.75, -8542.88, -8976.77, -8639.87, -159839.64, -152841.05, -154396.38, -153846.34, 0.00, 0.00, 0.00
143, -8369.12, -8499.16, -8934.15, -8598.42, -159796.66, -152798.22, -154350.95, -153800.09, 0.00, 0.00, 0.00
144, -8385.46, -8514.32, -8948.77, -8612.78, -159811.64, -152813.11, -154366.53, -153815.84, 0.00, 0.00, 0.00
145, -8436.80, -8561.59, -8994.70, -8657.59, -159858.13, -152859.64, -154415.53, -153865.78, -0.12, -0.04, 0.98
146, -8425.36, -8550.86, -8984.19, -8647.46, -159847.64, -152849.11, -154404.89, -153854.97, 0.00, 0.00, 0.00
147, -8375.06, -8504.64, -8939.38, -8603.90, -159802.25, -152804.00, -154357.08, -153806.34, 0.00, 0.00, 0.00
148, -8376.45, -8505.87, -8940.41, -8604.91, -159803.25, -152805.22, -154358.14, -153807.44, 0.00, 0.00, 0.00
149, -8426.61, -8551.82, -8984.93, -8648.31, -159848.42, -152850.28, -154405.88, -153856.00, 0.00, 0.00, 0.00
150, -8431.06, -8555.93, -8988.96, -8652.16, -159852.61, -152854.45, -154410.52, -153860.70, 0.00, 0.00, 0.00
151, -8382.69, -8511.68, -8945.91, -8610.54, -159809.06, -152811.08, -154364.67, -153813.88, 0.00, 0.00, 0.00
152, -8368.81, -8498.69, -8933.10, -8598.16, -159796.11, -152798.38, -154351.13, -153800.16, 0.00, 0.00, 0.00
153, -8415.68, -8541.63, -8974.69, -8638.68, -159838.38, -152840.58, -154395.70, -153845.53, 0.00, 0.00, 0.00
154, -8435.10, -8559.62, -8992.22, -8655.76, -159856.30, -152858.45, -154414.63, -153864.75, 0.00, 0.00, 0.00
155, -8389.75, -8517.94, -8951.78, -8616.40, -159815.28, -152817.73, -154371.58, -153820.98, -0.12, -0.04, 0.98
156, -8365.61, -8495.63, -8929.95, -8595.18, -159793.13, -152795.78, -154348.27, -153797.23, 0.00, 0.00, 0.00
157, -8407.76, -8534.39, -8967.45, -8631.62, -159831.17, -152833.88, -154388.34, -153837.98, 0.00, 0.00, 0.00
158, -8438.05, -8562.33, -8994.65, -8658.22, -159858.75, -152861.50, -154417.67, -153867.80, 0.00, 0.00, 0.00
159, -8400.72, -8528.06, -8961.51, -8626.03, -159825.23, -152827.97, -154382.39, -153831.92, 0.00, 0.00, 0.00
160, -8363.89, -8494.00, -8928.27, -8593.73, -159791.70, -152794.55, -154346.97, -153796.00, 0.00, 0.00, 0.00
161, -8396.08, -8523.52, -8956.70, -8621.49, -159820.59, -152823.56, -154377.55, -153827.20, 0.00, 0.00, 0.00
162, -8435.32, -8559.58, -8991.70, -8655.58, -159856.23, -152859.16, -154415.30, -153865.56, 0.00, 0.00, 0.00
163, -8409.11, -8535.71, -8968.64, -8633.20, -159832.88, -152835.88, -154390.72, -153840.56, 0.00, 0.00, 0.00
164, -8368.96, -8499.05, -8933.03, -8598.69, -159796.75, -152799.97, -154352.53, -153801.64, 0.00, 0.00, 0.00
165, -8391.60, -8519.84, -8953.01, -8618.18, -159817.14, -152820.48, -154373.92, -153823.34, -0.12, -0.04, 0.98
166, -8435.17, -8559.64, -8991.59, -8655.78, -159856.41, -152859.63, -154415.45, -153865.64, 0.00, 0.00, 0.00
167, -8418.20, -8544.22, -8976.73, -8641.27, -159841.28, -152844.63, -154399.83, -153849.64, 0.00, 0.00, 0.00
168, -8368.87, -8498.89, -8932.49, -8598.40, -159796.55, -152800.19, -154352.89, -153801.83, 0.00, 0.00, 0.00
169, -8380.38, -8509.42, -8942.58, -8608.26, -159806.83, -152810.47, -154363.58, -153812.77, 0.00, 0.00, 0.00
170, -8426.29, -8551.24, -8983.10, -8647.64, -159848.09, -152851.59, -154407.33, -153857.38, 0.00, 0.00, 0.00
171, -8423.57, -8548.78, -8980.84, -8645.68, -159845.95, -152849.56, -154405.16, -153855.13, 0.00, 0.00, 0.00
172, -8375.09, -8504.41, -8937.86, -8603.83, -159802.25, -152806.11, -154359.05, -153808.20, 0.00, 0.00, 0.00
173, -8372.81, -8502.29, -8935.49, -8601.71, -159800.03, -152804.05, -154356.66, -153805.81, 0.00, 0.00, 0.00
174, -8420.17, -8545.56, -8977.40, -8642.48, -159842.66, -152846.61, -154401.80, -153851.88, 0.00, 0.00, 0.00
175, -8428.08, -8552.87, -8984.51, -8649.39, -159849.91, -152853.94, -154409.75, -153859.92, -0.12, -0.04, 0.97
176, -8381.66, -8510.45, -8943.42, -8609.58, -159808.42, -152812.59, -154365.86, -153815.16, 0.00, 0.00, 0.00
177, -8368.07, -8497.93, -8931.18, -8597.82, -159796.06, -152800.36, -154352.73, -153801.72, 0.00, 0.00, 0.00
178, -8411.92, -8537.90, -8969.80, -8635.51, -159835.33, -152839.64, -154394.33, -153844.17, 0.00, 0.00, 0.00
179, -8430.45, -8554.82, -8986.23, -8651.44, -159852.05, -152856.33, -154412.23, -153862.50, 0.00, 0.00, 0.00
180, -8387.27, -8515.28, -8947.96, -8614.18, -159813.27, -152817.69, -154371.45, -153820.94, 0.00, 0.00, 0.00
181, -8363.44, -8493.57, -8926.77, -8593.73, -159791.98, -152796.45, -154348.80, -153797.81, 0.00, 0.00, 0.00
182, -8404.12, -8530.86, -8962.85, -8629.02, -159828.63, -152833.20, -154387.38, -153837.06, 0.00, 0.00, 0.00
183, -8435.86, -8559.96, -8991.26, -8656.58, -159857.48, -152862.06, -154418.03, -153868.17, 0.00, 0.00, 0.00
184, -8400.66, -8527.73, -8960.01, -8626.21, -159825.83, -152830.58, -154384.86, -153834.42, -0.11, -0.03, 0.97
185, -8363.71, -8493.84, -8926.93, -8594.07, -159792.33, -152797.25, -154349.58, -153798.39, 0.00, 0.00, 0.00
186, -8394.82, -8522.34, -8954.49, -8620.89, -159820.41, -152825.44, -154379.14, -153828.50, 0.00, 0.00, 0.00
187, -8434.63, -8558.80, -8989.80, -8655.24, -159856.36, -152861.36, -154417.27, -153867.44, 0.00, 0.00, 0.00
188, -8409.69, -8535.88, -8967.65, -8633.83, -159834.17, -152839.02, -154393.91, -153843.50, 0.00, 0.00, 0.00
189, -8367.58, -8497.35, -8930.17, -8597.62, -159796.28, -152801.39, -154353.78, -153802.59, 0.00, 0.00, 0.00
190, -8386.98, -8515.17, -8947.31, -8614.27, -159813.63, -152818.95, -154372.05, -153821.44, 0.00, 0.00, 0.00
191, -8430.52, -8554.82, -8985.76, -8651.51, -159852.70, -152857.83, -154413.56, -153863.70, 0.00, 0.00, 0.00
192, -8415.30, -8540.76, -8972.19, -8638.35, -159839.02, -152844.28, -154399.45, -153849.31, 0.00, 0.00, 0.00
193, -8367.64, -8497.22, -8929.88, -8597.33, -159796.23, -152801.70, -154354.30, -153803.13, 0.00, 0.00, 0.00
194, -8375.29, -8504.26, -8936.54, -8603.95, -159803.09, -152808.61, -154361.36, -153810.44, -0.11, -0.03, 0.97
195, -8423.41, -8548.29, -8979.17, -8645.41, -159846.28, -152851.84, -154407.25, -153857.20, 0.00, 0.00, 0.00
196, -8425.09, -8550.10, -8981.06, -8647.40, -159848.34, -152853.94, -154409.47, -153859.28, 0.00, 0.00, 0.00
197, -8373.97, -8503.01, -8935.29, -8602.99, -159802.11, -152807.89, -154360.81, -153809.75, 0.00, 0.00, 0.00
198, -8368.72, -8498.20, -8930.35, -8598.29, -159797.27, -152803.19, -154355.55, -153804.53, 0.00, 0.00, 0.00
199, -8417.26, -8542.70, -8973.53, -8640.27, -159841.05, -152846.97, -154401.86, -153851.72, 0.00, 0.00, 0.00
200, -8428.22, -8552.72, -8983.30, -8649.70, -159850.97, -152856.91, -154412.63, -153862.72, 0.00, 0.00, 0.00
201, -8380.70, -8509.08, -8940.99, -8608.53, -159808.06, -152814.11, -154367.41, -153816.75, 0.00, 0.00, 0.00
202, -8364.89, -8494.71, -8926.88, -8595.01, -159793.84, -152800.14, -154352.36, -153801.23, 0.00, 0.00, 0.00
203, -8410.45, -8536.56, -8967.45, -8634.61, -159835.02, -152841.31, -154395.86, -153845.44, 0.00, 0.00, 0.00
204, -8433.60, -8557.75, -8988.13, -8654.62, -159856.03, -152862.28, -154418.19, -153868.20, -0.12, -0.03, 0.97
205, -8391.67, -8519.39, -8950.76, -8618.39, -159818.31, -152824.69, -154378.58, -153827.81, 0.00, 0.00, 0.00
206, -8360.98, -8491.07, -8923.11, -8591.54, -159790.31, -152796.91, -154349.00, -153797.78, 0.00, 0.00, 0.00
207, -8399.32, -8526.12, -8957.13, -8624.80, -159824.89, -152831.50, -154385.38, -153834.80, 0.00, 0.00, 0.00
208, -8432.73, -8556.72, -8986.85, -8653.77, -159855.17, -152861.91, -154417.63, -153867.66, 0.00, 0.00, 0.00
209, -8398.15, -8524.96, -8956.03, -8623.79, -159824.06, -152830.92, -154385.02, -153834.44, 0.00, 0.00, 0.00
210, -8360.31, -8490.26, -8922.28, -8591.03, -159789.86, -152796.92, -154348.83, -153797.77, 0.00, 0.00, 0.00
211, -8387.58, -8515.21, -8946.31, -8614.41, -159814.30, -152821.27, -154374.59, -153824.05, 0.00, 0.00, 0.00
212, -8430.38, -8554.44, -8984.44, -8651.40, -159853.05, -152859.84, -154415.55, -153865.69, 0.00, 0.00, 0.00
213, -8407.03, -8533.00, -8963.70, -8631.21, -159832.09, -152838.98, -154393.69, -153843.34, 0.00, 0.00, 0.00
214, -8360.20, -8490.00, -8921.74, -8590.51, -159789.69, -152796.75, -154349.03, -153797.88, -0.12, -0.04, 0.98
215, -8376.67, -8505.08, -8936.21, -8604.71, -159804.39, -152811.66, -154364.63, -153813.80, 0.00, 0.00, 0.00
216, -8425.83, -8550.23, -8980.01, -8647.35, -159848.88, -152856.16, -154411.70, -153861.67, 0.00, 0.00, 0.00
217, -8414.22, -8539.51, -8969.58, -8637.29, -159838.48, -152845.73, -154400.91, -153850.66, 0.00, 0.00, 0.00
218, -8364.58, -8494.04, -8925.41, -8594.29, -159793.80, -152801.19, -154353.72, -153802.70, 0.00, 0.00, 0.00
219, -8369.63, -8498.63, -8929.66, -8598.58, -159798.20, -152805.73, -154358.42, -153807.42, 0.00, 0.00, 0.00
220, -8419.83, -8544.78, -8974.34, -8642.15, -159843.56, -152850.97, -154406.27, -153856.19, 0.00, 0.00, 0.00
221, -8420.15, -8544.87, -8974.45, -8642.21, -159843.80, -152851.34, -154406.84, -153856.73, 0.00, 0.00, 0.00
222, -8370.42, -8499.16, -8930.13, -8599.12, -159798.84, -152806.72, -154359.48, -153808.58, 0.00, 0.00, 0.00
223, -8361.85, -8491.27, -8922.37, -8591.50, -159791.05, -152798.95, -154351.19, -153800.14, 0.00, 0.00, 0.00
224, -8410.16, -8535.66, -8965.35, -8633.34, -159834.70, -152842.50, -154397.27, -153847.09, -0.12, -0.04, 0.98
225, -8425.07, -8549.32, -8978.70, -8646.37, -159848.25, -152856.09, -154411.81, -153861.83, 0.00, 0.00, 0.00
226, -8380.65, -8508.55, -8939.33, -8608.19, -159808.38, -152816.34, -154369.80, -153818.91, 0.00, 0.00, 0.00
227, -8360.45, -8490.11, -8921.34, -8590.69, -159790.09, -152798.23, -154350.48, -153799.13, 0.00, 0.00, 0.00
228, -8403.50, -8529.72, -8959.72, -8627.97, -159828.94, -152837.11, -154391.41, -153840.95, 0.00, 0.00, 0.00
229, -8428.15, -8552.16, -8981.62, -8649.14, -159851.20, -152859.39, -154415.09, -153865.17, 0.00, 0.00, 0.00
230, -8387.36, -8514.65, -8945.19, -8613.78, -159814.34, -152822.72, -154376.47, -153825.86, 0.00, 0.00, 0.00
231, -8354.34, -8484.21, -8915.46, -8584.81, -159784.44, -152792.88, -154344.88, -153793.63, 0.00, 0.00, 0.00
232, -8389.35, -8516.33, -8946.55, -8614.94, -159815.89, -152824.30, -154378.13, -153827.52, 0.00, 0.00, 0.00
233, -8425.00, -8548.87, -8978.23, -8645.68, -159847.94, -152856.38, -154412.22, -153862.19, 0.00, 0.00, 0.00
234, -8396.95, -8523.30, -8953.57, -8621.85, -159823.02, -152831.59, -154385.94, -153835.45, -0.12, -0.04, 0.98
235, -8356.18, -8485.95, -8917.21, -8586.47, -159786.22, -152795.05, -154347.06, -153795.84, 0.00, 0.00, 0.00
236, -8380.92, -8508.59, -8939.04, -8607.70, -159808.31, -152817.23, -154370.44, -153819.72, 0.00, 0.00, 0.00
237, -8426.70, -8550.55, -8979.97, -8647.49, -159849.70, -152858.70, -154414.23, -153864.31, 0.00, 0.00, 0.00
238, -8406.45, -8532.00, -8962.07, -8629.92, -159831.59, -152840.67, -154395.30, -153845.02, 0.00, 0.00, 0.00
239, -8359.75, -8489.17, -8920.45, -8589.48, -159789.52, -152798.64, -154350.86, -153799.64, 0.00, 0.00, 0.00
240, -8371.55, -8499.85, -8930.68, -8599.41, -159799.86, -152808.97, -154361.81, -153810.94, 0.00, 0.00, 0.00
241, -8419.37, -8543.69, -8973.13, -8640.67, -159842.95, -152852.05, -154407.50, -153857.47, 0.00, 0.00, 0.00
242, -8411.61, -8536.60, -8966.31, -8634.08, -159836.14, -152845.36, -154400.53, -153850.22, 0.00, 0.00, 0.00
243, -8361.07, -8490.15, -8921.27, -8590.27, -159790.47, -152799.98, -154352.47, -153801.30, 0.00, 0.00, 0.00
244, -8361.94, -8490.80, -8921.81, -8590.74, -159790.92, -152800.56, -154353.00, -153801.81, -0.11, -0.04, 0.98
245, -8413.67, -8538.39, -8968.08, -8635.73, -159837.78, -152847.33, -154402.31, -153852.02, 0.00, 0.00, 0.00
246, -8418.63, -8543.02, -8972.59, -8640.18, -159842.39, -152851.91, -154407.44, -153857.25, 0.00, 0.00, 0.00
247, -8370.37, -8498.80, -8929.72, -8598.47, -159799.03, -152808.83, -154361.75, -153810.59, 0.00, 0.00, 0.00
248, -8360.09, -8489.44, -8920.54, -8589.64, -159789.83, -152799.63, -154351.84, -153800.38, 0.00, 0.00, 0.00
249, -8405.35, -8530.79, -8960.63, -8628.60, -159830.38, -152840.23, -154394.78, -153844.25, 0.00, 0.00, 0.00
250, -8422.56, -8546.43, -8975.95, -8643.42, -159845.91, -152855.75, -154411.48, -153861.27, 0.00, 0.00, 0.00
251, -8376.41, -8503.97, -8934.68, -8603.23, -159804.11, -152814.13, -154367.63, -153816.67, 0.00, 0.00, 0.00
252, -8353.32, -8482.75, -8913.96, -8583.16, -159783.14, -152793.38, -154345.42, -153794.09, 0.00, 0.00, 0.00
253, -8394.02, -8520.04, -8950.04, -8618.27, -159819.81, -152830.05, -154384.03, -153833.47, 0.00, 0.00, 0.00
254, -8421.51, -8545.21, -8974.43, -8641.99, -159844.67, -152854.75, -154410.41, -153860.28, -0.11, -0.04, 0.98
255, -8384.54, -8511.41, -8941.61, -8610.14, -159811.39, -152821.78, -154375.63, -153824.83, 0.00, 0.00, 0.00
0, -8352.33, -8482.06, -8913.21, -8582.56, -159782.48, -152793.03, -154345.03, -153793.66, 0.00, 0.00, 0.00
1, -8386.42, -8513.44, -8943.63, -8612.17, -159813.38, -152823.91, -154377.48, -153826.69, 0.00, 0.00, 0.00
2, -8425.53, -8549.36, -8978.61, -8646.03, -159848.83, -152859.27, -154414.97, -153864.91, 0.00, 0.00, 0.00
3, -8395.90, -8521.98, -8952.03, -8620.20, -159821.88, -152832.47, -154386.88, -153836.25, 0.00, 0.00, 0.00
4, -8351.04, -8480.63, -8911.77, -8580.97, -159781.03, -152791.80, -154343.84, -153792.53, 0.00, 0.00, 0.00
5, -8374.33, -8501.96, -8932.41, -8601.04, -159801.94, -152812.88, -154365.88, -153814.91, 0.00, 0.00, 0.00
6, -8422.11, -8546.01, -8975.34, -8642.75, -159845.50, -152856.33, -154411.80, -153861.52, 0.00, 0.00, 0.00
7, -8405.91, -8531.21, -8961.19, -8628.94, -159831.08, -152841.95, -154396.77, -153846.22, -0.11, -0.04, 0.98
8, -8359.71, -8488.99, -8920.20, -8589.13, -159789.47, -152800.63, -154352.89, -153801.50, 0.00, 0.00, 0.00
9, -8370.48, -8498.85, -8929.61, -8598.29, -159799.02, -152810.27, -154362.91, -153811.77, 0.00, 0.00, 0.00
10, -8417.93, -8542.23, -8971.68, -8639.13, -159841.77, -152852.94, -154408.13, -153857.83, 0.00, 0.00, 0.00
11, -8411.16, -8535.84, -8965.53, -8633.07, -159835.53, -152846.83, -154401.91, -153851.50, 0.00, 0.00, 0.00
12, -8362.82, -8491.61, -8922.59, -8591.43, -159791.98, -152803.38, -154356.02, -153804.66, 0.00, 0.00, 0.00
13, -8362.66, -8491.47, -8922.39, -8591.23, -159791.81, -152803.25, -154355.58, -153804.27, 0.00, 0.00, 0.00
14, -8410.00, -8534.72, -8964.30, -8631.86, -159834.38, -152845.83, -154400.61, -153850.22, 0.00, 0.00, 0.00
15, -8419.32, -8543.51, -8972.91, -8640.27, -159843.05, -152854.55, -154409.95, -153859.69, 0.00, 0.00, 0.00
16, -8372.05, -8500.12, -8930.91, -8599.54, -159800.48, -152812.20, -154365.05, -153814.03, 0.00, 0.00, 0.00
17, -8354.50, -8483.76, -8914.81, -8583.87, -159784.22, -152796.09, -154348.05, -153796.78, -0.11, -0.04, 0.98
18, -8397.68, -8523.03, -8952.83, -8620.78, -159822.77, -152834.52, -154388.98, -153838.36, 0.00, 0.00, 0.00
19, -8418.70, -8542.30, -8971.70, -8638.99, -159841.88, -152853.67, -154409.28, -153859.02, 0.00, 0.00, 0.00
20, -8376.96, -8504.15, -8934.73, -8603.12, -159804.39, -152816.44, -154369.77, -153818.80, 0.00, 0.00, 0.00
21, -8351.66, -8480.86, -8912.18, -8581.26, -159781.47, -152793.75, -154345.55, -153794.13, 0.00, 0.00, 0.00
22, -8390.15, -8516.10, -8946.31, -8614.45, -159816.17, -152828.30, -154382.16, -153831.42, 0.00, 0.00, 0.00
23, -8421.94, -8545.34, -8974.61, -8641.94, -159845.02, -152857.03, -154412.69, -153862.50, 0.00, 0.00, 0.00
24, -8384.97, -8511.37, -8941.70, -8609.87, -159811.56, -152823.86, -154377.73, -153826.89, 0.00, 0.00, 0.00
25, -8349.25, -8478.64, -8909.87, -8578.98, -159779.30, -152791.80, -154343.59, -153792.11, 0.00, 0.00, 0.00
26, -8380.56, -8507.36, -8937.66, -8606.07, -159807.48, -152819.98, -154373.25, -153822.28, 0.00, 0.00, 0.00
27, -8420.15, -8543.60, -8972.88, -8640.25, -159843.16, -152855.66, -154411.23, -153860.95, -0.12, -0.03, 0.98
28, -8393.48, -8518.96, -8949.15, -8617.11, -159819.11, -152831.61, -154386.16, -153835.36, 0.00, 0.00, 0.00
29, -8350.05, -8479.22, -8910.48, -8579.54, -159779.89, -152792.63, -154344.73, -153793.16, 0.00, 0.00, 0.00
30, -8368.94, -8496.39, -8927.02, -8595.68, -159796.66, -152809.47, -154362.34, -153811.22, 0.00, 0.00, 0.00
31, -8415.97, -8539.51, -8969.00, -8636.47, -159839.13, -152851.91, -154407.20, -153857.02, 0.00, 0.00, 0.00
32, -8401.73, -8526.50, -8956.48, -8624.29, -159826.39, -152839.34, -154394.14, -153843.50, 0.00, 0.00, 0.00
33, -8352.29, -8481.10, -8912.24, -8581.26, -159781.63, -152794.75, -154346.91, -153795.44, 0.00, 0.00, 0.00
34, -8359.64, -8487.87, -8918.70, -8587.56, -159788.19, -152801.44, -154353.72, -153802.48, 0.00, 0.00, 0.00
35, -8409.37, -8533.49, -8962.96, -8630.66, -159833.14, -152846.44, -154401.28, -153850.97, 0.00, 0.00, 0.00
36, -8407.99, -8532.22, -8961.80, -8629.45, -159831.98, -152845.27, -154400.28, -153849.89, 0.00, 0.00, 0.00
37, -8358.30, -8486.60, -8917.56, -8586.38, -159787.09, -152800.47, -154352.92, -153801.77, -0.11, -0.03, 0.97
38, -8355.53, -8484.36, -8915.35, -8584.32, -159784.77, -152798.22, -154350.33, -153798.95, 0.00, 0.00, 0.00
39, -8402.71, -8527.53, -8957.08, -8624.84, -159827.08, -152840.67, -154395.11, -153844.58, 0.00, 0.00, 0.00
40, -8413.64, -8537.56, -8966.87, -8634.37, -159837.03, -152850.64, -154405.89, -153855.56, 0.00, 0.00, 0.00
41, -8367.08, -8494.94, -8925.54, -8594.33, -159795.20, -152808.88, -154361.75, -153810.66, 0.00, 0.00, 0.00
42, -8350.88, -8480.09, -8911.04, -8580.43, -159780.64, -152794.44, -154346.20, -153794.86, 0.00, 0.00, 0.00
43, -8397.19, -8522.67, -8952.34, -8620.64, -159822.33, -152836.27, -154390.22, -153839.66, 0.00, 0.00, 0.00
44, -8421.02, -8544.56, -8973.76, -8641.39, -159843.94, -152857.81, -154413.20, -153863.08, 0.00, 0.00, 0.00
45, -8375.18, -8502.09, -8932.52, -8601.13, -159802.16, -152816.22, -154369.50, -153818.67, 0.00, 0.00, 0.00
46, -8345.40, -8474.53, -8905.76, -8575.11, -159774.98, -152789.30, -154340.89, -153789.42, 0.00, 0.00, 0.00
47, -8386.82, -8512.77, -8942.96, -8611.41, -159812.75, -152827.03, -154380.31, -153829.63, -0.12, -0.04, 0.97
48, -8421.00, -8544.20, -8973.58, -8641.12, -159843.73, -152857.89, -154413.25, -153863.17, 0.00, 0.00, 0.00
49, -8388.32, -8514.32, -8944.68, -8612.93, -159814.41, -152828.66, -154382.47, -153831.77, 0.00, 0.00, 0.00
50, -8348.62, -8477.86, -8909.16, -8578.38, -159778.52, -152792.98, -154344.59, -153793.27, 0.00, 0.00, 0.00
51, -8376.36, -8503.32, -8933.66, -8602.27, -159803.44, -152817.84, -154370.89, -153819.98, 0.00, 0.00, 0.00
52, -8416.59, -8539.95, -8969.15, -8636.78, -159839.39, -152853.83, -154409.22, -153859.03, 0.00, 0.00, 0.00
53, -8391.92, -8517.18, -8947.16, -8615.28, -159816.95, -152831.64, -154385.97, -153835.30, 0.00, 0.00, 0.00
54, -8347.24, -8476.27, -8907.46, -8576.81, -159776.77, -152791.64, -154343.50, -153792.06, 0.00, 0.00, 0.00
55, -8364.18, -8491.65, -8922.32, -8591.27, -159791.92, -152806.83, -154359.38, -153808.20, 0.00, 0.00, 0.00
56, -8410.31, -8533.94, -8963.25, -8631.01, -159833.45, -152848.28, -154403.34, -153853.02, 0.00, 0.00, 0.00
57, -8399.41, -8523.97, -8953.62, -8621.58, -159823.64, -152838.58, -154393.23, -153842.83, -0.12, -0.04, 0.98
58, -8352.33, -8480.92, -8911.95, -8581.08, -159781.31, -152796.39, -154348.45, -153797.19, 0.00, 0.00, 0.00
59, -8359.42, -8487.67, -8918.50, -8587.52, -159787.94, -152803.05, -154355.16, -153803.94, 0.00, 0.00, 0.00
60, -8410.00, -8533.99, -8963.59, -8631.33, -159833.67, -152848.64, -154403.45, -153853.05, 0.00, 0.00, 0.00
61, -8409.42, -8533.20, -8962.76, -8630.50, -159832.98, -152848.06, -154403.14, -153852.69, 0.00, 0.00, 0.00
62, -8361.56, -8489.50, -8920.40, -8589.35, -159789.98, -152805.33, -154357.61, -153806.38, 0.00, 0.00, 0.00
63, -8354.21, -8482.80, -8913.85, -8583.05, -159783.23, -152798.70, -154350.53, -153799.13, 0.00, 0.00, 0.00
64, -8401.75, -8526.47, -8956.19, -8624.11, -159826.09, -152841.56, -154395.83, -153845.23, 0.00, 0.00, 0.00
65, -8416.17, -8539.68, -8969.13, -8636.67, -159839.23, -152854.77, -154409.95, -153859.64, 0.00, 0.00, 0.00
66, -8369.36, -8496.61, -8927.33, -8596.12, -159797.05, -152812.66, -154365.52, -153814.39, 0.00, 0.00, 0.00
67, -8348.09, -8477.03, -8908.31, -8577.57, -159777.69, -152793.48, -154345.09, -153793.63, -0.12, -0.03, 0.97
68, -8391.31, -8516.71, -8946.82, -8614.97, -159816.58, -152832.48, -154386.11, -153835.50, 0.00, 0.00, 0.00
69, -8416.97, -8540.18, -8969.62, -8637.12, -159839.80, -152855.55, -154410.78, -153860.59, 0.00, 0.00, 0.00
70, -8376.70, -8503.14, -8933.79, -8602.09, -159803.41, -152819.36, -154372.58, -153821.69, 0.00, 0.00, 0.00
71, -8347.57, -8476.61, -8907.93, -8577.08, -159777.13, -152793.25, -154344.72, -153793.30, 0.00, 0.00, 0.00
72, -8380.58, -8506.67, -8936.92, -8605.33, -159806.63, -152822.66, -154375.88, -153825.11, 0.00, 0.00, 0.00
73, -8415.45, -8538.41, -8967.72, -8635.26, -159837.92, -152853.94, -154409.22, -153859.03, 0.00, 0.00, 0.00
74, -8386.75, -8512.28, -8942.53, -8610.88, -159812.31, -152828.53, -154382.39, -153831.58, 0.00, 0.00, 0.00
75, -8346.61, -8475.49, -8906.97, -8576.30, -159776.19, -152792.61, -154344.20, -153792.69, 0.00, 0.00, 0.00
76, -8370.44, -8497.22, -8927.91, -8596.57, -159797.41, -152813.81, -154366.55, -153815.53, 0.00, 0.00, 0.00
77, -8412.95, -8536.13, -8965.64, -8633.18, -159835.58, -152852.00, -154407.16, -153856.89, -0.11, -0.03, 0.97
78, -8392.43, -8517.24, -8947.38, -8615.46, -159817.16, -152833.72, -154387.94, -153837.31, 0.00, 0.00, 0.00
79, -8343.66, -8472.36, -8903.71, -8572.99, -159772.97, -152789.69, -154341.34, -153789.92, 0.00, 0.00, 0.00
80, -8357.81, -8485.37, -8916.20, -8585.28, -159785.66, -152802.42, -154354.70, -153803.52, 0.00, 0.00, 0.00
81, -8409.69, -8533.11, -8962.74, -8630.50, -159832.72, -152849.52, -154404.39, -153853.94, 0.00, 0.00, 0.00
82, -8403.23, -8527.24, -8957.26, -8625.11, -159827.13, -152843.92, -154398.63, -153847.98, 0.00, 0.00, 0.00
83, -8354.10, -8482.20, -8913.56, -8582.67, -159782.78, -152799.81, -154351.80, -153800.36, 0.00, 0.00, 0.00
84, -8356.00, -8483.92, -8915.02, -8584.17, -159784.34, -152801.61, -154353.31, -153801.98, 0.00, 0.00, 0.00
85, -8405.26, -8529.11, -8958.83, -8626.86, -159828.83, -152845.97, -154400.39, -153849.88, 0.00, 0.00, 0.00
86, -8408.26, -8531.68, -8961.35, -8629.29, -159831.42, -152848.53, -154403.45, -153853.02, -0.11, -0.03, 0.97
87, -8360.54, -8488.01, -8919.06, -8588.05, -159788.44, -152805.81, -154358.06, -153806.84, 0.00, 0.00, 0.00
88, -8349.72, -8478.15, -8909.32, -8578.69, -159778.73, -152796.08, -154347.58, -153796.30, 0.00, 0.00, 0.00
89, -8394.80, -8519.34, -8949.35, -8617.47, -159819.23, -152836.50, -154390.52, -153839.98, 0.00, 0.00, 0.00
90, -8410.83, -8533.85, -8963.52, -8631.19, -159833.59, -152850.92, -154405.98, -153855.67, 0.00, 0.00, 0.00
91, -8364.80, -8491.52, -8922.41, -8591.27, -159791.91, -152809.44, -154362.19, -153811.09, 0.00, 0.00, 0.00
92, -8343.59, -8472.18, -8903.53, -8573.03, -159772.77, -152790.53, -154341.94, -153790.44, 0.00, 0.00, 0.00
93, -8386.40, -8511.66, -8941.77, -8610.25, -159811.50, -152829.20, -154382.69, -153832.05, 0.00, 0.00, 0.00
94, -8413.96, -8536.71, -8966.16, -8633.94, -159836.33, -152853.89, -154409.17, -153858.92, 0.00, 0.00, 0.00
95, -8375.09, -8501.02, -8931.47, -8600.21, -159801.20, -152818.89, -154372.36, -153821.38, 0.00, 0.00, 0.00
96, -8342.59, -8471.24, -8902.52, -8572.36, -159771.92, -152789.86, -154341.34, -153789.83, -0.11, -0.03, 0.97
97, -8375.98, -8501.96, -8932.20, -8601.24, -159802.05, -152819.94, -154372.98, -153822.11, 0.00, 0.00, 0.00
98, -8412.86, -8535.59, -8964.97, -8632.96, -159835.22, -152853.16, -154408.22, -153858.00, 0.00, 0.00, 0.00
99, -8384.59, -8509.78, -8939.96, -8608.57, -159809.77, -152827.86, -154381.64, -153830.91, 0.00, 0.00, 0.00
100, -8341.92, -8470.55, -8901.87, -8571.65, -159771.11, -152789.41, -154340.88, -153789.34, 0.00, 0.00, 0.00
101, -8363.37, -8490.11, -8920.67, -8589.82, -159790.17, -152808.52, -154360.97, -153809.86, 0.00, 0.00, 0.00
102, -8410.87, -8533.87, -8963.21, -8631.33, -159833.23, -152851.53, -154406.58, -153856.16, 0.00, 0.00, 0.00
103, -8394.91, -8519.19, -8949.17, -8617.63, -159819.02, -152837.36, -154391.63, -153841.00, 0.00, 0.00, 0.00
104, -8346.01, -8474.37, -8905.54, -8575.29, -159774.88, -152793.39, -154345.03, -153793.59, 0.00, 0.00, 0.00
105, -8356.60, -8483.98, -8914.81, -8584.37, -159784.17, -152802.83, -154354.86, -153803.59, 0.00, 0.00, 0.00
106, -8406.54, -8529.74, -8959.27, -8627.62, -159829.31, -152847.86, -154402.50, -153852.06, -0.11, -0.03, 0.97
107, -8402.89, -8526.43, -8956.17, -8624.67, -159826.13, -152844.84, -154399.41, -153848.89, 0.00, 0.00, 0.00
108, -8351.53, -8479.18, -8910.32, -8580.10, -159779.61, -152798.55, -154350.50, -153799.08, 0.00, 0.00, 0.00
109, -8351.44, -8479.29, -8910.32, -8580.16, -159779.52, -152798.52, -154350.23, -153798.81, 0.00, 0.00, 0.00
110, -8402.04, -8525.71, -8955.45, -8623.95, -159825.27, -152844.20, -154398.45, -153847.92, 0.00, 0.00, 0.00
111, -8408.82, -8531.79, -8961.53, -8629.79, -159831.44, -152850.41, -154405.17, -153854.78, 0.00, 0.00, 0.00
112, -8359.53, -8486.53, -8917.59, -8587.03, -159786.84, -152806.05, -154358.33, -153807.09, 0.00, 0.00, 0.00
113, -8345.92, -8474.10, -8905.38, -8575.18, -159774.48, -152793.77, -154345.19, -153793.67, 0.00, 0.00, 0.00
114, -8390.89, -8515.25, -8945.37, -8613.96, -159814.88, -152834.19, -154387.92, -153837.27, 0.00, 0.00, 0.00
115, -8409.64, -8532.20, -8961.91, -8629.96, -159831.70, -152851.02, -154405.98, -153855.75, 0.00, 0.00, 0.00
116, -8366.30, -8492.54, -8923.35, -8592.50, -159792.64, -152812.19, -154364.94, -153813.95, -0.11, -0.03, 0.97
117, -8341.31, -8469.57, -8901.07, -8570.91, -159770.02, -152789.72, -154340.94, -153789.42, 0.00, 0.00, 0.00
118, -8379.33, -8504.30, -8934.60, -8603.37, -159804.03, -152823.67, -154376.88, -153826.06, 0.00, 0.00, 0.00
119, -8411.14, -8533.61, -8963.14, -8631.06, -159832.92, -152852.48, -154407.56, -153857.25, 0.00, 0.00, 0.00
120, -8376.74, -8502.07, -8932.61, -8601.44, -159802.00, -152821.75, -154375.16, -153824.14, 0.00, 0.00, 0.00
121, -8343.39, -8471.78, -8903.12, -8573.06, -159772.09, -152792.08, -154343.42, -153791.83, 0.00, 0.00, 0.00
122, -8375.67, -8501.49, -8931.96, -8601.08, -159801.25, -152821.31, -154374.03, -153822.94, 0.00, 0.00, 0.00
123, -8417.82, -8540.22, -8969.62, -8637.74, -159839.47, -152859.38, -154414.47, -153863.95, 0.00, 0.00, 0.00
124, -8390.51, -8514.99, -8945.21, -8613.87, -159814.72, -152834.77, -154388.56, -153837.70, 0.00, 0.00, 0.00
125, -8341.60, -8469.81, -8901.22, -8571.02, -159770.02, -152790.38, -154341.73, -153790.13, 0.00, 0.00, 0.00
126, -8361.25, -8487.81, -8918.59, -8587.85, -159787.67, -152808.14, -154360.38, -153808.98, -0.11, -0.03, 0.97
127, -8408.17, -8530.90, -8960.48, -8628.40, -159830.09, -152850.41, -154405.31, -153854.78, 0.00, 0.00, 0.00
128, -8393.79, -8517.51, -8947.60, -8615.86, -159817.11, -152837.47, -154391.86, -153841.11, 0.00, 0.00, 0.00
129, -8345.85, -8473.59, -8905.02, -8574.55, -159773.91, -152794.53, -154346.19, -153794.61, 0.00, 0.00, 0.00
130, -8351.89, -8478.91, -8909.99, -8579.40, -159778.95, -152799.67, -154351.55, -153800.06, 0.00, 0.00, 0.00
131, -8401.64, -8524.53, -8954.35, -8622.39, -159823.78, -152844.55, -154398.95, -153848.38, 0.00, 0.00, 0.00
132, -8399.14, -8522.16, -8952.03, -8620.15, -159821.56, -152842.36, -154396.88, -153846.20, 0.00, 0.00, 0.00
133, -8349.63, -8476.88, -8908.04, -8577.44, -159777.02, -152797.89, -154349.83, -153798.38, 0.00, 0.00, 0.00
134, -8347.35, -8474.93, -8906.19, -8575.74, -159775.03, -152796.05, -154347.48, -153796.06, 0.00, 0.00, 0.00
135, -8398.42, -8521.96, -8951.85, -8620.24, -159821.31, -152842.30, -154396.30, -153845.63, 0.00, 0.00, 0.00
136, -8407.79, -8530.36, -8960.17, -8628.15, -159829.63, -152850.59, -154405.53, -153854.97, -0.11, -0.04, 0.97
137, -8361.34, -8487.76, -8918.82, -8587.99, -159787.75, -152808.95, -154361.41, -153810.08, 0.00, 0.00, 0.00
138, -8342.30, -8470.13, -8901.47, -8571.13, -159770.22, -152791.61, -154343.02, -153791.31, 0.00, 0.00, 0.00
139, -8387.54, -8511.79, -8941.79, -8610.36, -159810.97, -152832.42, -154385.94, -153835.03, 0.00, 0.00, 0.00
140, -8410.09, -8532.35, -8961.95, -8629.81, -159831.44, -152852.78, -154407.80, -153857.25, 0.00, 0.00, 0.00
141, -8367.00, -8492.68, -8923.35, -8592.37, -159792.38, -152813.89, -154366.81, -153815.56, 0.00, 0.00, 0.00
142, -8337.69, -8465.75, -8897.16, -8567.00, -159765.81, -152787.52, -154338.66, -153786.97, 0.00, 0.00, 0.00
143, -8375.29, -8500.19, -8930.59, -8599.43, -159799.70, -152821.33, -154374.33, -153823.34, 0.00, 0.00, 0.00
144, -8410.22, -8532.40, -8961.89, -8629.92, -159831.33, -152853.09, -154407.98, -153857.61, 0.00, 0.00, 0.00
145, -8377.01, -8501.96, -8932.45, -8601.24, -159801.44, -152823.36, -154376.66, -153825.58, 0.00, 0.00, 0.00
146, -8337.49, -8465.52, -8897.13, -8566.78, -159765.61, -152787.63, -154338.81, -153787.02, -0.11, -0.04, 0.98
147, -8364.87, -8490.49, -8921.36, -8590.33, -159790.14, -152812.13, -154364.67, -153813.34, 0.00, 0.00, 0.00
148, -8407.32, -8529.34, -8959.14, -8626.90, -159828.31, -152850.31, -154405.20, -153854.58, 0.00, 0.00, 0.00
149, -8385.91, -8509.93, -8940.36, -8608.68, -159809.38, -152831.52, -154385.28, -153834.36, 0.00, 0.00, 0.00
150, -8342.90, -8470.73, -8902.34, -8571.80, -159770.80, -152793.09, -154344.52, -153792.73, 0.00, 0.00, 0.00
151, -8358.68, -8484.99, -8916.02, -8585.13, -159784.77, -152807.05, -154359.20, -153807.75, 0.00, 0.00, 0.00
152, -8406.13, -8528.49, -8958.18, -8626.23, -159827.64, -152849.84, -154404.53, -153853.91, 0.00, 0.00, 0.00
153, -8396.03, -8519.30, -8949.44, -8617.69, -159818.67, -152841.17, -154395.25, -153844.50, 0.00, 0.00, 0.00
154, -8345.78, -8473.08, -8904.51, -8574.02, -159773.27, -152795.94, -154347.31, -153795.78, 0.00, 0.00, 0.00
155, -8352.09, -8479.00, -8910.23, -8579.65, -159778.91, -152801.69, -154353.25, -153801.70, 0.00, 0.00, 0.00
156, -8402.00, -8524.75, -8954.60, -8622.88, -159823.94, -152846.56, -154400.84, -153850.09, -0.11, -0.04, 0.97
157, -8400.75, -8523.41, -8953.33, -8621.56, -159822.72, -152845.33, -154399.83, -153849.06, 0.00, 0.00, 0.00
158, -8350.25, -8476.97, -8908.33, -8577.73, -159777.11, -152799.89, -154351.73, -153800.19, 0.00, 0.00, 0.00
159, -8343.21, -8470.62, -8902.12, -8571.83, -159770.78, -152793.70, -154345.00, -153793.39, 0.00, 0.00, 0.00
160, -8391.27, -8514.81, -8944.88, -8613.54, -159814.09, -152837.06, -154390.89, -153840.03, 0.00, 0.00, 0.00
161, -8403.52, -8525.87, -8955.70, -8623.88, -159825.11, -152847.97, -154402.77, -153852.06, 0.00, 0.00, 0.00
162, -8357.12, -8483.25, -8914.30, -8583.72, -159783.19, -152806.28, -154358.73, -153807.13, 0.00, 0.00, 0.00
163, -8338.99, -8466.86, -8898.34, -8568.25, -159766.94, -152790.17, -154341.27, -153789.47, 0.00, 0.00, 0.00
164, -8382.02, -8506.20, -8936.47, -8605.31, -159805.58, -152828.73, -154382.02, -153831.06, 0.00, 0.00, 0.00
165, -8407.63, -8529.58, -8959.23, -8627.42, -159828.63, -152851.84, -154406.73, -153856.19, -0.11, -0.04, 0.98
166, -8367.35, -8492.75, -8923.46, -8592.70, -159792.33, -152815.77, -154368.67, -153817.34, 0.00, 0.00, 0.00
167, -8336.73, -8464.69, -8896.26, -8566.28, -159764.70, -152788.30, -154339.28, -153787.42, 0.00, 0.00, 0.00
168, -8372.00, -8497.06, -8927.53, -8596.77, -159796.44, -152820.08, -154372.75, -153821.59, 0.00, 0.00, 0.00
169, -8408.59, -8530.59, -8960.14, -8628.47, -159829.45, -152853.20, -154407.83, -153857.36, 0.00, 0.00, 0.00
170, -8377.12, -8501.62, -8932.09, -8601.15, -159801.11, -152824.84, -154378.06, -153827.00, 0.00, 0.00, 0.00
171, -8337.74, -8465.39, -8897.02, -8567.11, -159765.50, -152789.45, -154340.42, -153788.53, 0.00, 0.00, 0.00
172, -8363.22, -8488.79, -8919.66, -8589.13, -159788.44, -152812.48, -154364.52, -153813.22, 0.00, 0.00, 0.00
173, -8404.08, -8526.14, -8955.87, -8624.13, -159825.14, -152849.00, -154403.55, -153853.05, 0.00, 0.00, 0.00
174, -8382.69, -8506.36, -8936.70, -8605.44, -159805.69, -152829.63, -154383.36, -153832.50, 0.00, 0.00, 0.00
175, -8336.02, -8463.53, -8895.12, -8565.01, -159763.61, -152787.73, -154338.88, -153787.19, -0.11, -0.04, 0.98
176, -8351.10, -8477.41, -8908.53, -8578.20, -159777.17, -152801.48, -154353.03, -153801.67, 0.00, 0.00, 0.00
177, -8398.98, -8521.22, -8951.07, -8619.44, -159820.23, -152844.55, -154398.73, -153848.14, 0.00, 0.00, 0.00
178, -8392.41, -8515.28, -8945.53, -8614.05, -159814.67, -152838.92, -154393.00, -153842.17, 0.00, 0.00, 0.00
179, -8341.47, -8468.43, -8900.02, -8569.86, -159768.56, -152792.97, -154344.44, -153792.64, 0.00, 0.00, 0.00
180, -8344.38, -8471.13, -8902.50, -8572.30, -159771.09, -152795.64, -154346.97, -153795.33, 0.00, 0.00, 0.00
181, -8394.80, -8517.45, -8947.49, -8616.06, -159816.70, -152841.27, -154395.11, -153844.45, 0.00, 0.00, 0.00
182, -8400.88, -8523.21, -8953.24, -8621.69, -159822.48, -152847.17, -154401.47, -153850.84, 0.00, 0.00, 0.00
183, -8351.19, -8477.55, -8908.87, -8578.51, -159777.50, -152802.31, -154354.14, -153802.66, 0.00, 0.00, 0.00
184, -8341.58, -8468.85, -8900.38, -8570.31, -159768.91, -152793.80, -154344.80, -153793.16, 0.00, 0.00, 0.00
185, -8386.22, -8509.51, -8939.89, -8608.77, -159808.84, -152833.83, -154387.27, -153836.33, -0.12, -0.03, 0.98
186, -8403.27, -8525.11, -8955.05, -8623.46, -159824.20, -152849.14, -154403.70, -153853.13, 0.00, 0.00, 0.00
187, -8357.38, -8482.96, -8914.08, -8583.58, -159782.73, -152807.81, -154360.22, -153808.73, 0.00, 0.00, 0.00
188, -8335.14, -8462.68, -8894.34, -8564.43, -159762.75, -152788.05, -154338.88, -153787.03, 0.00, 0.00, 0.00
189, -8376.41, -8500.50, -8931.11, -8600.03, -159799.92, -152825.23, -154378.20, -153827.09, 0.00, 0.00, 0.00
190, -8403.56, -8525.29, -8955.14, -8623.35, -159824.27, -152849.58, -154404.27, -153853.67, 0.00, 0.00, 0.00
191, -8365.10, -8489.91, -8920.83, -8590.04, -159789.59, -152815.11, -154367.78, -153816.55, 0.00, 0.00, 0.00
192, -8331.41, -8458.84, -8890.72, -8560.72, -159759.02, -152784.78, -154335.44, -153783.59, 0.00, 0.00, 0.00
193, -8366.15, -8490.80, -8921.63, -8590.83, -159790.33, -152816.06, -154368.34, -153817.13, 0.00, 0.00, 0.00
194, -8404.50, -8526.12, -8955.92, -8624.13, -159825.06, -152850.81, -154405.27, -153854.70, 0.00, 0.00, 0.00
195, -8377.95, -8501.93, -8932.63, -8601.49, -159801.48, -152827.25, -154380.45, -153829.45, -0.11, -0.04, 0.98
196, -8335.39, -8462.73, -8894.52, -8564.50, -159762.86, -152788.88, -154339.75, -153788.02, 0.00, 0.00, 0.00
197, -8357.12, -8482.53, -8913.56, -8583.00, -159782.13, -152808.33, -154360.20, -153808.81, 0.00, 0.00, 0.00
198, -8404.81, -8526.50, -8956.37, -8624.67, -159825.56, -152851.59, -154406.03, -153855.33, 0.00, 0.00, 0.00
199, -8386.75, -8509.85, -8940.41, -8609.11, -159809.31, -152835.45, -154389.11, -153838.22, 0.00, 0.00, 0.00
200, -8337.56, -8464.63, -8896.44, -8566.24, -159764.72, -152791.02, -154342.13, -153790.39, 0.00, 0.00, 0.00
201, -8349.11, -8475.18, -8906.50, -8576.10, -159774.98, -152801.38, -154352.89, -153801.20, 0.00, 0.00, 0.00
202, -8397.64, -8519.68, -8949.68, -8618.12, -159818.83, -152845.16, -154399.28, -153848.48, 0.00, 0.00, 0.00
203, -8392.16, -8514.63, -8944.88, -8613.49, -159814.00, -152840.34, -154394.38, -153843.59, 0.00, 0.00, 0.00
204, -8340.75, -8467.35, -8898.94, -8568.76, -159767.45, -152793.92, -154345.36, -153793.66, 0.00, 0.00, 0.00
205, -8340.93, -8467.60, -8899.12, -8568.97, -159767.53, -152794.19, -154345.41, -153793.67, -0.11, -0.04, 0.97
206, -8390.17, -8512.82, -8943.00, -8611.55, -159812.00, -152838.63, -154392.30, -153841.48, 0.00, 0.00, 0.00
207, -8398.18, -8520.13, -8950.11, -8618.47, -159819.30, -152845.98, -154400.19, -153849.48, 0.00, 0.00, 0.00
208, -8349.40, -8475.29, -8906.61, -8576.14, -159775.16, -152802.05, -154353.81, -153802.33, 0.00, 0.00, 0.00
209, -8335.37, -8462.42, -8894.07, -8564.09, -159762.38, -152789.44, -154340.27, -153788.58, 0.00, 0.00, 0.00
210, -8382.22, -8505.42, -8935.85, -8604.75, -159804.69, -152831.70, -154384.97, -153834.00, 0.00, 0.00, 0.00
211, -8400.92, -8522.50, -8952.41, -8620.80, -159821.72, -152848.63, -154403.09, -153852.39, 0.00, 0.00, 0.00
212, -8356.51, -8481.57, -8912.67, -8582.15, -159781.47, -152808.64, -154360.83, -153809.34, 0.00, 0.00, 0.00
213, -8330.72, -8457.99, -8889.58, -8559.69, -159758.08, -152785.44, -154336.13, -153784.16, 0.00, 0.00, 0.00
214, -8366.88, -8490.78, -8921.27, -8590.40, -159790.27, -152817.63, -154370.17, -153819.00, 0.00, 0.00, 0.00
215, -8396.21, -8517.45, -8947.22, -8615.50, -159816.69, -152843.95, -154398.33, -153847.72, -0.11, -0.04, 0.97
216, -8361.79, -8486.02, -8916.83, -8586.02, -159785.89, -152813.33, -154365.97, -153814.75, 0.00, 0.00, 0.00
217, -8330.09, -8457.36, -8889.04, -8559.26, -159757.70, -152785.36, -154335.86, -153784.09, 0.00, 0.00, 0.00
218, -8363.29, -8487.94, -8918.77, -8588.12, -159787.72, -152815.42, -154367.33, -153816.08, 0.00, 0.00, 0.00
219, -8402.62, -8523.82, -8953.66, -8621.98, -159823.17, -152850.77, -154405.05, -153854.36, 0.00, 0.00, 0.00
220, -8374.89, -8498.27, -8928.90, -8597.73, -159798.11, -152825.73, -154378.84, -153827.73, 0.00, 0.00, 0.00
221, -8331.32, -8458.26, -8890.05, -8559.91, -159758.69, -152786.48, -154337.25, -153785.34, 0.00, 0.00, 0.00
222, -8351.17, -8476.47, -8907.53, -8576.90, -159776.41, -152804.33, -154355.94, -153804.41, 0.00, 0.00, 0.00
223, -8395.90, -8517.49, -8947.22, -8615.57, -159816.63, -152844.59, -154398.77, -153848.02, 0.00, 0.00, 0.00
224, -8382.02, -8504.82, -8935.09, -8603.72, -159804.38, -152832.42, -154385.97, -153834.95, 0.00, 0.00, 0.00
225, -8332.93, -8459.67, -8891.28, -8561.10, -159760.03, -152788.25, -154339.06, -153787.38, -0.11, -0.03, 0.97
226, -8340.98, -8467.00, -8898.25, -8567.94, -159767.02, -152795.45, -154346.56, -153794.86, 0.00, 0.00, 0.00
227, -8393.66, -8515.63, -8945.59, -8614.00, -159815.02, -152843.30, -154397.06, -153846.25, 0.00, 0.00, 0.00
228, -8391.20, -8513.29, -8943.40, -8611.86, -159812.83, -152841.05, -154395.03, -153844.22, 0.00, 0.00, 0.00
229, -8340.31, -8466.44, -8898.03, -8567.69, -159766.73, -152795.20, -154346.44, -153794.84, 0.00, 0.00, 0.00
230, -8335.86, -8462.42, -8893.92, -8563.71, -159762.63, -152791.25, -154342.03, -153790.30, 0.00, 0.00, 0.00
231, -8383.25, -8505.78, -8935.98, -8604.55, -159805.28, -152833.88, -154387.20, -153836.30, 0.00, 0.00, 0.00
232, -8391.81, -8513.44, -8943.40, -8611.79, -159812.91, -152841.56, -154395.63, -153844.91, 0.00, 0.00, 0.00
233, -8346.57, -8472.18, -8903.35, -8572.99, -159772.36, -152801.23, -154352.84, -153801.28, 0.00, 0.00, 0.00
234, -8332.35, -8459.40, -8890.90, -8561.12, -159759.80, -152788.72, -154339.34, -153787.42, 0.00, 0.00, 0.00
235, -8377.63, -8501.02, -8931.33, -8600.30, -159800.63, -152829.59, -154382.39, -153831.36, -0.11, -0.03, 0.98
236, -8400.50, -8521.87, -8951.76, -8619.97, -159821.20, -152850.31, -154404.48, -153853.88, 0.00, 0.00, 0.00
237, -8356.87, -8481.68, -8912.65, -8582.04, -159781.70, -152810.94, -154363.09, -153811.53, 0.00, 0.00, 0.00
238, -8324.82, -8452.00, -8883.61, -8553.88, -159752.41, -152781.86, -154332.23, -153780.36, 0.00, 0.00, 0.00
239, -8362.32, -8486.35, -8916.92, -8586.29, -159786.22, -152815.61, -154367.89, -153816.59, 0.00, 0.00, 0.00
240, -8396.81, -8517.98, -8947.69, -8616.13, -159817.45, -152846.72, -154400.97, -153850.20, 0.00, 0.00, 0.00
241, -8363.82, -8487.69, -8918.50, -8587.70, -159787.78, -152817.23, -154369.91, -153818.59, 0.00, 0.00, 0.00
242, -8327.63, -8454.70, -8886.34, -8556.61, -159755.22, -152784.94, -154335.45, -153783.38, 0.00, 0.00, 0.00
243, -8359.46, -8484.14, -8914.93, -8584.52, -159784.17, -152813.86, -154365.75, -153814.16, 0.00, 0.00, 0.00
244, -8400.05, -8521.25, -8950.84, -8619.35, -159820.67, -152850.30, -154404.44, -153853.58, 0.00, 0.00, 0.00
245, -8376.36, -8499.38, -8929.79, -8598.81, -159799.30, -152829.06, -154382.16, -153831.00, -0.11, -0.04, 0.98
246, -8332.19, -8459.13, -8890.56, -8560.87, -159759.63, -152789.55, -154340.17, -153788.25, 0.00, 0.00, 0.00
247, -8346.99, -8472.45, -8903.28, -8573.21, -159772.56, -152802.53, -154353.92, -153802.28, 0.00, 0.00, 0.00
248, -8393.84, -8515.32, -8944.97, -8613.69, -159814.78, -152844.84, -154398.67, -153847.88, 0.00, 0.00, 0.00
249, -8383.60, -8505.93, -8936.12, -8604.97, -159805.67, -152835.84, -154389.28, -153838.25, 0.00, 0.00, 0.00
250, -8334.16, -8460.56, -8892.02, -8562.17, -159761.03, -152791.38, -154342.25, -153790.25, 0.00, 0.00, 0.00
251, -8339.73, -8465.77, -8897.00, -8567.02, -159766.17, -152796.47, -154347.42, -153795.55, 0.00, 0.00, 0.00
252, -8388.23, -8510.16, -8940.09, -8608.75, -159809.88, -152840.06, -154393.48, -153842.63, 0.00, 0.00, 0.00
253, -8391.47, -8513.24, -8943.20, -8611.84, -159812.89, -152843.28, -154397.00, -153846.09, 0.00, 0.00, 0.00
254, -8341.83, -8467.73, -8898.97, -8568.85, -159768.08, -152798.67, -154349.88, -153798.13, -0.12, -0.04, 0.98
255, -8335.55, -8462.06, -8893.36, -8563.49, -159762.58, -152793.14, -154343.75, -153791.94, 0.00, 0.00, 0.00
0, -8384.12, -8506.58, -8936.52, -8605.58, -159806.34, -152836.95, -154390.05, -153838.94, 0.00, 0.00, 0.00
1, -8396.86, -8518.05, -8947.76, -8616.46, -159817.69, -152848.36, -154402.31, -153851.50, 0.00, 0.00, 0.00
2, -8348.64, -8473.68, -8904.64, -8574.55, -159774.22, -152804.98, -154356.58, -153804.97, 0.00, 0.00, 0.00
3, -8327.54, -8454.14, -8885.62, -8556.11, -159754.89, -152785.75, -154336.20, -153784.27, 0.00, 0.00, 0.00
4, -8372.00, -8495.09, -8925.36, -8594.69, -159795.00, -152825.95, -154378.53, -153827.30, 0.00, 0.00, 0.00
5, -8400.34, -8521.27, -8950.91, -8619.50, -159820.98, -152851.80, -154405.94, -153855.13, 0.00, 0.00, 0.00
6, -8359.15, -8483.31, -8914.08, -8583.72, -159783.77, -152814.84, -154366.97, -153815.48, 0.00, 0.00, 0.00
7, -8325.22, -8451.93, -8883.46, -8553.97, -159752.81, -152784.06, -154334.39, -153782.39, 0.00, 0.00, 0.00
8, -8361.32, -8485.12, -8915.64, -8585.30, -159785.28, -152816.66, -154368.66, -153817.33, -0.12, -0.04, 0.97
9, -8398.67, -8519.37, -8948.99, -8617.69, -159819.14, -152850.41, -154404.44, -153853.78, 0.00, 0.00, 0.00
10, -8367.60, -8490.98, -8921.34, -8590.92, -159791.23, -152822.67, -154375.14, -153823.84, 0.00, 0.00, 0.00
11, -8326.85, -8453.68, -8885.04, -8555.58, -159754.42, -152786.02, -154336.27, -153784.27, 0.00, 0.00, 0.00
12, -8352.31, -8477.06, -8907.71, -8577.57, -159777.30, -152808.92, -154360.42, -153808.89, 0.00, 0.00, 0.00
13, -8396.23, -8517.31, -8946.89, -8615.61, -159816.91, -152848.64, -154402.52, -153851.66, 0.00, 0.00, 0.00
14, -8377.12, -8499.79, -8929.92, -8599.21, -159799.80, -152831.64, -154384.66, -153833.39, 0.00, 0.00, 0.00
15, -8328.46, -8454.97, -8886.41, -8556.83, -159755.72, -152787.59, -154338.17, -153786.19, 0.00, 0.00, 0.00
16, -8339.53, -8464.78, -8895.79, -8565.88, -159765.30, -152797.23, -154348.42, -153796.52, 0.00, 0.00, 0.00
17, -8388.65, -8509.91, -8939.58, -8608.46, -159809.69, -152841.64, -154395.31, -153844.25, 0.00, 0.00, 0.00
18, -8381.39, -8503.30, -8933.32, -8602.31, -159803.30, -152835.25, -154388.70, -153837.63, -0.11, -0.04, 0.97
19, -8333.04, -8459.11, -8890.34, -8560.70, -159759.88, -152791.98, -154342.75, -153790.91, 0.00, 0.00, 0.00
20, -8335.46, -8461.34, -8892.44, -8562.82, -159761.97, -152794.31, -154344.95, -153793.11, 0.00, 0.00, 0.00
21, -8386.11, -8507.90, -8937.70, -8606.74, -159807.88, -152840.13, -154393.34, -153842.33, 0.00, 0.00, 0.00
22, -8389.95, -8511.34, -8941.08, -8609.96, -159811.41, -152843.64, -154397.28, -153846.27, 0.00, 0.00, 0.00
23, -8341.47, -8466.84, -8897.92, -8568.03, -159767.58, -152800.03, -154351.17, -153799.28, 0.00, 0.00, 0.00
24, -8332.22, -8458.55, -8889.78, -8560.32, -159759.25, -152791.92, -154342.28, -153790.39, 0.00, 0.00, 0.00
25, -8378.51, -8500.95, -8930.88, -8600.21, -159800.91, -152833.56, -154386.33, -153835.31, 0.00, 0.00, 0.00
26, -8394.29, -8515.37, -8944.85, -8613.74, -159815.17, -152847.80, -154401.70, -153850.94, 0.00, 0.00, 0.00
27, -8349.32, -8474.02, -8904.87, -8574.80, -159774.59, -152807.42, -154359.11, -153807.41, 0.00, 0.00, 0.00
28, -8326.16, -8452.65, -8884.04, -8554.57, -159753.64, -152786.55, -154336.88, -153784.69, -0.11, -0.04, 0.98
29, -8366.86, -8489.84, -8920.04, -8589.60, -159790.14, -152823.13, -154375.45, -153824.00, 0.00, 0.00, 0.00
30, -8396.57, -8517.29, -8946.80, -8615.52, -159817.14, -152850.08, -154404.19, -153853.20, 0.00, 0.00, 0.00
31, -8358.79, -8482.67, -8913.29, -8582.89, -159783.25, -152816.39, -154368.50, -153816.88, 0.00, 0.00, 0.00
32, -8324.86, -8451.57, -8883.07, -8553.59, -159752.53, -152785.88, -154336.02, -153783.94, 0.00, 0.00, 0.00
33, -8357.16, -8481.12, -8911.62, -8581.33, -159781.48, -152814.89, -154366.47, -153815.00, 0.00, 0.00, 0.00
34, -8395.49, -8516.33, -8945.70, -8614.50, -159816.11, -152849.47, -154403.25, -153852.39, 0.00, 0.00, 0.00
35, -8368.11, -8491.18, -8921.50, -8590.89, -159791.52, -152825.08, -154377.55, -153826.16, 0.00, 0.00, 0.00
36, -8326.43, -8452.92, -8884.33, -8554.82, -159753.86, -152787.72, -154337.81, -153785.67, 0.00, 0.00, 0.00
37, -8348.13, -8472.81, -8903.46, -8573.39, -159773.19, -152807.11, -154358.28, -153806.50, 0.00, 0.00, 0.00
38, -8394.15, -8515.05, -8944.52, -8613.36, -159814.94, -152848.64, -154402.31, -153851.39, -0.11, -0.04, 0.98
39, -8377.61, -8499.94, -8929.88, -8599.21, -159800.27, -152834.00, -154386.94, -153835.72, 0.00, 0.00, 0.00
40, -8329.82, -8456.18, -8887.41, -8557.83, -159757.05, -152791.09, -154341.41, -153789.36, 0.00, 0.00, 0.00
41, -8338.09, -8463.58, -8894.43, -8564.58, -159764.20, -152798.31, -154349.05, -153797.23, 0.00, 0.00, 0.00
42, -8384.74, -8506.00, -8935.58, -8604.57, -159806.05, -152840.08, -154393.33, -153842.41, 0.00, 0.00, 0.00
43, -8379.80, -8501.46, -8931.29, -8600.44, -159801.72, -152835.81, -154389.03, -153838.05, 0.00, 0.00, 0.00
44, -8331.95, -8457.86, -8888.93, -8559.24, -159758.89, -152793.22, -154343.75, -153791.89, 0.00, 0.00, 0.00
45, -8329.06, -8454.95, -8885.91, -8556.31, -159755.98, -152790.33, -154340.58, -153788.78, 0.00, 0.00, 0.00
46, -8375.09, -8496.90, -8926.50, -8595.70, -159797.05, -152831.44, -154384.30, -153833.28, 0.00, 0.00, 0.00
47, -8381.70, -8502.96, -8932.47, -8601.35, -159803.03, -152837.33, -154390.95, -153839.88, 0.00, 0.00, 0.00
48, -8336.17, -8461.45, -8892.28, -8562.39, -159762.31, -152796.88, -154347.91, -153796.11, -0.12, -0.03, 0.97
49, -8322.52, -8448.98, -8880.06, -8550.59, -159749.92, -152784.56, -154334.67, -153782.70, 0.00, 0.00, 0.00
50, -8367.04, -8489.77, -8919.49, -8588.90, -159789.98, -152824.66, -154377.09, -153825.86, 0.00, 0.00, 0.00
51, -8388.59, -8509.58, -8938.93, -8607.68, -159809.63, -152844.33, -154398.05, -153847.14, 0.00, 0.00, 0.00
52, -8345.63, -8470.17, -8900.71, -8570.53, -159770.91, -152805.73, -154357.39, -153805.61, 0.00, 0.00, 0.00
53, -8319.97, -8446.59, -8877.78, -8548.16, -159747.64, -152782.59, -154332.64, -153780.58, 0.00, 0.00, 0.00
54, -8358.46, -8481.79, -8911.84, -8581.30, -159782.22, -152817.19, -154369.09, -153817.75, 0.00, 0.00, 0.00
55, -8389.55, -8510.29, -8939.56, -8608.26, -159810.30, -152845.38, -154399.05, -153848.28, 0.00, 0.00, 0.00
56, -8354.95, -8478.78, -8909.00, -8578.67, -159779.36, -152814.48, -154366.59, -153815.11, 0.00, 0.00, 0.00
57, -8318.83, -8445.70, -8876.82, -8547.44, -159746.81, -152782.03, -154332.06, -153779.86, 0.00, 0.00, 0.00
58, -8350.10, -8474.42, -8904.67, -8574.49, -159774.94, -152810.27, -154361.66, -153810.11, -0.12, -0.04, 0.97
59, -8390.55, -8511.41, -8940.70, -8609.44, -159811.44, -152846.77, -154400.41, -153849.52, 0.00, 0.00, 0.00
60, -8365.16, -8488.16, -8918.23, -8587.58, -159788.69, -152824.03, -154376.61, -153825.17, 0.00, 0.00, 0.00
61, -8322.20, -8448.87, -8880.04, -8550.48, -159749.88, -152785.55, -154335.69, -153783.50, 0.00, 0.00, 0.00
62, -8342.54, -8467.49, -8897.92, -8567.94, -159768.08, -152803.83, -154354.81, -153803.13, 0.00, 0.00, 0.00
63, -8386.15, -8507.16, -8936.47, -8605.22, -159807.28, -152842.92, -154396.39, -153845.44, 0.00, 0.00, 0.00
64, -8372.27, -8494.45, -8924.29, -8593.33, -159794.92, -152830.63, -154383.67, -153832.34, 0.00, 0.00, 0.00
65, -8322.29, -8448.49, -8879.63, -8550.01, -159749.75, -152785.61, -154336.02, -153783.94, 0.00, 0.00, 0.00
66, -8329.91, -8455.51, -8886.25, -8556.52, -159756.45, -152792.56, -154343.02, -153791.13, 0.00, 0.00, 0.00
67, -8380.81, -8502.36, -8931.80, -8600.71, -159802.55, -152838.63, -154391.67, -153840.59, 0.00, 0.00, 0.00
68, -8378.60, -8500.17, -8929.77, -8598.72, -159800.58, -152836.63, -154389.78, -153838.58, -0.12, -0.03, 0.97
69, -8328.86, -8454.48, -8885.35, -8555.60, -159755.67, -152791.88, -154342.50, -153790.48, 0.00, 0.00, 0.00
70, -8325.58, -8451.55, -8882.45, -8552.81, -159752.69, -152789.05, -154339.28, -153787.17, 0.00, 0.00, 0.00
71, -8375.33, -8497.24, -8926.77, -8595.94, -159797.67, -152833.95, -154386.72, -153835.47, 0.00, 0.00, 0.00
72, -8387.78, -8508.84, -8938.17, -8606.99, -159809.17, -152845.50, -154398.95, -153847.98, 0.00, 0.00, 0.00
73, -8340.20, -8465.16, -8895.82, -8565.75, -159766.17, -152802.69, -154353.75, -153801.91, 0.00, 0.00, 0.00
74, -8322.16, -8448.69, -8879.54, -8549.94, -159749.64, -152786.33, -154336.28, -153784.22, 0.00, 0.00, 0.00
75, -8367.80, -8490.62, -8920.31, -8589.57, -159790.92, -152827.67, -154379.84, -153828.59, 0.00, 0.00, 0.00
76, -8390.55, -8511.39, -8940.52, -8609.20, -159811.59, -152848.20, -154401.73, -153850.84, 0.00, 0.00, 0.00
77, -8348.24, -8472.54, -8902.79, -8572.59, -159773.44, -152810.17, -154361.70, -153810.11, -0.11, -0.03, 0.97
78, -8320.82, -8447.44, -8878.36, -8548.94, -159748.63, -152785.64, -154335.50, -153783.44, 0.00, 0.00, 0.00
79, -8356.18, -8479.71, -8909.52, -8579.14, -159780.23, -152817.23, -154368.89, -153817.53, 0.00, 0.00, 0.00
80, -8387.58, -8508.46, -8937.50, -8606.18, -159808.58, -152845.50, -154399.13, -153848.23, 0.00, 0.00, 0.00
81, -8357.03, -8480.63, -8910.57, -8580.14, -159781.23, -152818.36, -154370.47, -153818.94, 0.00, 0.00, 0.00
82, -8319.77, -8446.48, -8877.31, -8547.96, -159747.59, -152784.97, -154334.83, -153782.67, 0.00, 0.00, 0.00
83, -8347.86, -8472.16, -8902.23, -8572.09, -159772.88, -152810.25, -154361.41, -153809.88, 0.00, 0.00, 0.00
84, -8388.52, -8509.29, -8938.22, -8607.05, -159809.42, -152846.83, -154400.28, -153849.48, 0.00, 0.00, 0.00
85, -8365.56, -8488.30, -8917.88, -8587.29, -159788.88, -152826.36, -154378.78, -153827.50, 0.00, 0.00, 0.00
86, -8320.57, -8447.06, -8877.84, -8548.36, -159748.31, -152785.92, -154335.81, -153783.78, 0.00, 0.00, 0.00
87, -8338.68, -8463.53, -8893.85, -8563.94, -159764.52, -152802.27, -154352.88, -153801.19, -0.11, -0.04, 0.98
88, -8383.94, -8504.84, -8933.90, -8602.83, -159805.22, -152842.81, -154396.02, -153845.22, 0.00, 0.00, 0.00
89, -8374.68, -8496.59, -8925.97, -8595.18, -159797.13, -152834.83, -154387.56, -153836.48, 0.00, 0.00, 0.00
90, -8324.48, -8450.46, -8881.20, -8551.55, -159751.73, -152789.66, -154339.77, -153787.81, 0.00, 0.00, 0.00
91, -8328.73, -8454.37, -8884.84, -8555.11, -159755.38, -152793.44, -154343.75, -153791.83, 0.00, 0.00, 0.00
92, -8377.84, -8499.29, -8928.47, -8597.44, -159799.64, -152837.52, -154390.52, -153839.30, 0.00, 0.00, 0.00
93, -8379.22, -8500.55, -8929.86, -8598.67, -159801.05, -152838.98, -154392.19, -153841.00, 0.00, 0.00, 0.00
94, -8327.66, -8453.12, -8883.66, -8553.81, -159754.30, -152792.47, -154343.16, -153791.08, 0.00, 0.00, 0.00
95, -8321.98, -8448.04, -8878.60, -8549.05, -159749.20, -152787.56, -154337.66, -153785.45, 0.00, 0.00, 0.00
96, -8370.64, -8492.79, -8922.12, -8591.36, -159793.27, -152831.61, -154384.19, -153832.80, 0.00, 0.00, 0.00
97, -8385.88, -8506.87, -8936.00, -8604.80, -159807.30, -152845.67, -154399.16, -153848.03, -0.11, -0.04, 0.98
98, -8340.75, -8465.54, -8895.86, -8565.99, -159766.67, -152805.27, -154356.27, -153804.47, 0.00, 0.00, 0.00
99, -8319.97, -8446.46, -8877.15, -8547.78, -159747.63, -152786.39, -154336.16, -153784.00, 0.00, 0.00, 0.00
100, -8361.14, -8483.85, -8913.52, -8583.02, -159784.45, -152823.28, -154375.16, -153823.69, 0.00, 0.00, 0.00
101, -8388.27, -8509.04, -8938.06, -8606.92, -159809.31, -152848.06, -154401.55, -153850.50, 0.00, 0.00, 0.00
102, -8349.74, -8473.75, -8903.93, -8573.82, -159774.75, -152813.64, -154365.19, -153813.41, 0.00, 0.00, 0.00
103, -8318.58, -8445.09, -8876.01, -8546.79, -159746.45, -152785.59, -154335.34, -153783.06, 0.00, 0.00, 0.00
104, -8353.05, -8476.65, -8906.48, -8576.50, -159777.34, -152816.45, -154367.95, -153816.34, 0.00, 0.00, 0.00
105, -8388.65, -8509.24, -8938.13, -8607.19, -159809.52, -152848.53, -154402.09, -153851.02, 0.00, 0.00, 0.00
106, -8356.56, -8479.74, -8909.49, -8579.40, -159780.50, -152819.67, -154371.73, -153820.14, 0.00, 0.00, 0.00
107, -8315.88, -8442.50, -8873.11, -8544.13, -159743.84, -152783.22, -154332.84, -153780.64, -0.11, -0.04, 0.97
108, -8341.16, -8465.48, -8895.44, -8565.72, -159766.44, -152805.94, -154356.63, -153804.94, 0.00, 0.00, 0.00
109, -8383.89, -8504.44, -8933.46, -8602.54, -159804.81, -152844.33, -154397.55, -153846.41, 0.00, 0.00, 0.00
110, -8360.18, -8482.40, -8912.02, -8581.53, -159783.20, -152822.88, -154375.17, -153823.69, 0.00, 0.00, 0.00
111, -8314.16, -8440.17, -8871.03, -8541.70, -159741.70, -152781.30, -154331.28, -153778.98, 0.00, 0.00, 0.00
112, -8330.18, -8455.02, -8885.38, -8555.71, -159756.30, -152795.88, -154346.48, -153794.55, 0.00, 0.00, 0.00
113, -8378.73, -8499.65, -8928.65, -8597.80, -159800.19, -152839.70, -154392.97, -153841.83, 0.00, 0.00, 0.00
114, -8370.42, -8492.08, -8921.41, -8590.74, -159792.86, -152832.44, -154385.48, -153834.06, 0.00, 0.00, 0.00
115, -8322.05, -8447.91, -8878.47, -8549.14, -159749.34, -152789.13, -154339.59, -153787.31, 0.00, 0.00, 0.00
116, -8325.78, -8451.28, -8881.93, -8552.43, -159752.67, -152792.63, -154342.86, -153790.81, 0.00, 0.00, 0.00
117, -8373.90, -8495.16, -8924.40, -8593.75, -159795.75, -152835.84, -154388.52, -153837.31, -0.11, -0.04, 0.97
118, -8377.21, -8498.18, -8927.42, -8596.57, -159798.84, -152839.02, -154392.20, -153840.88, 0.00, 0.00, 0.00
119, -8327.70, -8452.78, -8883.37, -8553.81, -159754.34, -152794.58, -154345.25, -153793.16, 0.00, 0.00, 0.00
120, -8316.75, -8442.72, -8873.46, -8544.18, -159744.27, -152784.66, -154334.47, -153782.28, 0.00, 0.00, 0.00
121, -8363.35, -8485.35, -8914.75, -8584.32, -159786.06, -152826.47, -154378.70, -153827.30, 0.00, 0.00, 0.00
122, -8382.11, -8502.60, -8931.67, -8600.77, -159803.23, -152843.59, -154397.02, -153845.83, 0.00, 0.00, 0.00
123, -8336.24, -8460.58, -8890.90, -8560.99, -159761.81, -152802.39, -154353.56, -153801.67, 0.00, 0.00, 0.00
124, -8313.31, -8439.42, -8870.25, -8541.00, -159740.94, -152781.59, -154331.45, -153779.17, 0.00, 0.00, 0.00
125, -8354.28, -8476.99, -8906.63, -8576.43, -159777.95, -152818.61, -154370.47, -153818.86, 0.00, 0.00, 0.00
126, -8382.84, -8503.18, -8932.11, -8601.11, -159803.86, -152844.47, -154398.00, -153846.92, 0.00, 0.00, 0.00
127, -8345.18, -8468.67, -8898.65, -8568.56, -159769.91, -152810.69, -154362.34, -153810.59, -0.11, -0.03, 0.98
128, -8313.71, -8440.06, -8870.71, -8541.67, -159741.66, -152782.66, -154332.28, -153779.97, 0.00, 0.00, 0.00
129, -8347.64, -8471.22, -8900.89, -8571.13, -159772.31, -152813.28, -154364.56, -153812.83, 0.00, 0.00, 0.00
130, -8383.87, -8504.17, -8932.94, -8602.09, -159804.81, -152845.78, -154399.25, -153848.11, 0.00, 0.00, 0.00
131, -8356.07, -8478.64, -8908.29, -8578.11, -159779.81, -152820.92, -154373.02, -153821.39, 0.00, 0.00, 0.00
132, -8314.40, -8440.55, -8871.23, -8542.08, -159742.19, -152783.59, -154333.34, -153781.00, 0.00, 0.00, 0.00
133, -8336.87, -8461.12, -8891.17, -8561.43, -159762.38, -152803.83, -154354.56, -153802.61, 0.00, 0.00, 0.00
134, -8384.16, -8504.55, -8933.46, -8602.56, -159805.22, -152846.67, -154399.83, -153848.55, 0.00, 0.00, 0.00
135, -8366.48, -8488.41, -8917.81, -8587.29, -159789.39, -152830.98, -154383.42, -153831.94, 0.00, 0.00, 0.00
136, -8316.41, -8442.28, -8873.04, -8543.69, -159744.02, -152785.77, -154335.61, -153783.39, 0.00, 0.00, 0.00
137, -8327.01, -8451.82, -8882.23, -8552.63, -159753.41, -152795.11, -154345.47, -153793.34, -0.11, -0.04, 0.97
138, -8376.03, -8496.70, -8925.77, -8595.03, -159797.58, -152839.23, -154392.30, -153840.92, 0.00, 0.00, 0.00
139, -8370.64, -8491.81, -8921.12, -8590.40, -159792.81, -152834.56, -154387.61, -153836.13, 0.00, 0.00, 0.00
140, -8319.79, -8445.09, -8875.63, -8546.28, -159746.81, -152788.81, -154339.14, -153786.91, 0.00, 0.00, 0.00
141, -8318.60, -8444.02, -8874.47, -8545.18, -159745.77, -152787.78, -154337.88, -153785.55, 0.00, 0.00, 0.00
142, -8366.21, -8487.43, -8916.51, -8586.22, -159788.48, -152830.53, -154383.05, -153831.56, 0.00, 0.00, 0.00
143, -8372.72, -8493.30, -8922.26, -8591.74, -159794.38, -152836.55, -154389.63, -153838.25, 0.00, 0.00, 0.00
144, -8326.45, -8451.04, -8881.38, -8552.04, -159752.92, -152795.27, -154345.86, -153793.67, 0.00, 0.00, 0.00
145, -8313.64, -8439.37, -8869.93, -8540.87, -159741.25, -152783.83, -154333.36, -153781.09, 0.00, 0.00, 0.00
146, -8357.25, -8479.36, -8908.56, -8578.31, -159780.36, -152822.89, -154374.84, -153823.34, 0.00, 0.00, 0.00
147, -8377.97, -8498.42, -8927.20, -8596.46, -159799.30, -152841.80, -154395.05, -153843.81, -0.11, -0.04, 0.98
148, -8333.07, -8457.01, -8887.01, -8557.21, -159758.47, -152801.23, -154352.22, -153800.22, 0.00, 0.00, 0.00
149, -8305.82, -8431.93, -8862.53, -8533.36, -159733.67, -152776.63, -154326.14, -153773.63, 0.00, 0.00, 0.00
150, -8345.94, -8468.74, -8898.21, -8568.12, -159769.91, -152812.81, -154364.25, -153812.45, 0.00, 0.00, 0.00
151, -8378.64, -8498.76, -8927.49, -8596.68, -159799.64, -152842.44, -154395.66, -153844.45, 0.00, 0.00, 0.00
152, -8343.97, -8466.88, -8896.69, -8566.69, -159768.41, -152811.45, -154362.95, -153811.09, 0.00, 0.00, 0.00
153, -8307.23, -8433.13, -8863.85, -8534.81, -159735.27, -152778.38, -154327.86, -153775.45, 0.00, 0.00, 0.00
154, -8337.25, -8460.63, -8890.34, -8560.56, -159762.13, -152805.28, -154356.27, -153804.30, 0.00, 0.00, 0.00
155, -8379.04, -8499.21, -8927.82, -8597.02, -159800.17, -152843.22, -154396.50, -153845.17, 0.00, 0.00, 0.00
156, -8354.86, -8477.10, -8906.48, -8576.25, -159778.53, -152821.69, -154373.80, -153822.06, -0.11, -0.04, 0.97
157, -8310.13, -8435.93, -8866.53, -8537.27, -159737.98, -152781.36, -154330.98, -153778.52, 0.00, 0.00, 0.00
158, -8328.82, -8452.94, -8882.92, -8553.10, -159754.50, -152797.91, -154348.45, -153796.33, 0.00, 0.00, 0.00
159, -8375.58, -8495.83, -8924.63, -8593.69, -159796.73, -152840.16, -154393.27, -153841.95, 0.00, 0.00, 0.00
160, -8363.08, -8484.50, -8913.63, -8583.16, -159785.70, -152829.25, -154381.80, -153830.20, 0.00, 0.00, 0.00
161, -8315.72, -8441.18, -8871.63, -8542.30, -159743.08, -152786.80, -154336.72, -153784.36, 0.00, 0.00, 0.00
162, -8325.15, -8449.96, -8880.17, -8550.59, -159751.69, -152795.45, -154345.66, -153793.50, 0.00, 0.00, 0.00
163, -8378.26, -8498.94, -8927.78, -8597.08, -159799.88, -152843.69, -154396.41, -153845.17, 0.00, 0.00, 0.00
164, -8373.70, -8494.42, -8923.46, -8592.73, -159795.56, -152839.41, -154392.33, -153841.02, 0.00, 0.00, 0.00
165, -8321.64, -8446.52, -8876.93, -8547.31, -159748.38, -152792.45, -154342.77, -153790.61, 0.00, 0.00, 0.00
166, -8318.58, -8443.68, -8874.11, -8544.63, -159745.56, -152789.66, -154339.58, -153787.28, -0.12, -0.04, 0.97
167, -8366.66, -8487.78, -8916.92, -8586.33, -159789.02, -152832.94, -154385.42, -153834.02, 0.00, 0.00, 0.00
168, -8376.09, -8496.39, -8925.27, -8594.36, -159797.42, -152841.47, -154394.56, -153843.36, 0.00, 0.00, 0.00
169, -8329.22, -8453.50, -8883.61, -8553.86, -159755.22, -152799.47, -154350.09, -153798.03, 0.00, 0.00, 0.00
170, -8313.17, -8438.81, -8869.28, -8540.02, -159740.69, -152785.08, -154334.72, -153782.30, 0.00, 0.00, 0.00
171, -8358.01, -8479.89, -8909.09, -8578.80, -159781.06, -152825.44, -154377.33, -153825.64, 0.00, 0.00, 0.00
172, -8380.67, -8500.64, -8929.32, -8598.34, -159801.53, -152845.92, -154399.05, -153847.88, 0.00, 0.00, 0.00
173, -8337.11, -8460.58, -8890.50, -8560.54, -159762.16, -152806.67, -154357.81, -153805.80, 0.00, 0.00, 0.00
174, -8307.65, -8433.42, -8864.01, -8534.81, -159735.17, -152779.88, -154329.47, -153776.91, 0.00, 0.00, 0.00
175, -8345.13, -8467.87, -8897.36, -8567.18, -159769.03, -152813.64, -154364.98, -153813.22, 0.00, 0.00, 0.00
176, -8378.31, -8498.18, -8926.79, -8595.88, -159798.97, -152843.61, -154396.72, -153845.53, -0.12, -0.03, 0.98
177, -8344.71, -8467.27, -8896.96, -8566.80, -159768.67, -152813.53, -154365.05, -153813.28, 0.00, 0.00, 0.00
178, -8307.99, -8433.63, -8864.30, -8535.15, -159735.48, -152780.45, -154329.92, -153777.53, 0.00, 0.00, 0.00
179, -8335.43, -8458.79, -8888.57, -8558.66, -159760.08, -152805.06, -154355.86, -153804.00, 0.00, 0.00, 0.00
180, -8377.14, -8496.99, -8925.72, -8594.67, -159797.64, -152842.70, -154395.70, -153844.59, 0.00, 0.00, 0.00
181, -8352.76, -8474.40, -8903.86, -8573.44, -159775.53, -152820.59, -154372.56, -153821.02, 0.00, 0.00, 0.00
182, -8304.59, -8430.03, -8860.63, -8531.28, -159731.73, -152776.84, -154326.55, -153774.13, 0.00, 0.00, 0.00
183, -8324.42, -8448.38, -8878.38, -8548.67, -159749.70, -152795.00, -154345.31, -153793.23, 0.00, 0.00, 0.00
184, -8373.37, -8493.42, -8922.06, -8591.25, -159794.00, -152839.25, -154392.14, -153840.84, 0.00, 0.00, 0.00
185, -8362.44, -8483.40, -8912.53, -8581.97, -159784.38, -152829.63, -154382.16, -153830.58, 0.00, 0.00, 0.00
186, -8312.90, -8437.94, -8868.50, -8539.04, -159739.58, -152785.13, -154334.91, -153782.55, -0.11, -0.03, 0.98
187, -8318.13, -8442.77, -8872.99, -8543.44, -159744.11, -152789.88, -154339.59, -153787.39, 0.00, 0.00, 0.00
188, -8367.87, -8488.39, -8917.36, -8586.47, -159788.95, -152834.70, -154387.06, -153835.70, 0.00, 0.00, 0.00
189, -8370.39, -8490.91, -8919.98, -8589.01, -159791.55, -152837.17, -154389.80, -153838.53, 0.00, 0.00, 0.00
190, -8319.16, -8443.75, -8874.13, -8544.51, -159745.14, -152790.94, -154341.05, -153788.84, 0.00, 0.00, 0.00
191, -8311.56, -8436.82, -8867.25, -8537.92, -159738.14, -152784.09, -154333.63, -153781.27, 0.00, 0.00, 0.00
192, -8357.05, -8478.46, -8907.53, -8577.03, -159778.91, -152824.92, -154376.92, -153825.39, 0.00, 0.00, 0.00
193, -8372.02, -8492.28, -8921.07, -8590.16, -159792.59, -152838.61, -154391.56, -153840.14, 0.00, 0.00, 0.00
194, -8323.95, -8448.00, -8878.09, -8548.20, -159749.13, -152795.25, -154345.88, -153793.63, 0.00, 0.00, 0.00
195, -8304.05, -8429.78, -8860.25, -8530.86, -159730.97, -152777.34, -154326.72, -153774.16, 0.00, 0.00, 0.00
196, -8347.35, -8469.32, -8898.61, -8568.14, -159769.80, -152816.28, -154367.83, -153815.95, -0.11, -0.04, 0.97
197, -8374.86, -8494.67, -8923.40, -8592.21, -159794.92, -152841.36, -154394.38, -153843.08, 0.00, 0.00, 0.00
198, -8336.11, -8459.38, -8889.20, -8558.95, -159760.14, -152806.67, -154357.72, -153805.72, 0.00, 0.00, 0.00
199, -8302.56, -8428.44, -8859.05, -8529.58, -159729.52, -152776.11, -154325.47, -153772.94, 0.00, 0.00, 0.00
200, -8337.96, -8460.89, -8890.34, -8560.14, -159761.25, -152807.92, -154359.00, -153807.16, 0.00, 0.00, 0.00
201, -8373.34, -8493.26, -8921.79, -8590.69, -159793.17, -152839.86, -154392.95, -153841.67, 0.00, 0.00, 0.00
202, -8341.92, -8464.38, -8893.85, -8563.51, -159764.86, -152811.63, -154363.16, -153811.31, 0.00, 0.00, 0.00
203, -8304.05, -8429.89, -8860.48, -8531.12, -159730.86, -152777.91, -154327.08, -153774.56, 0.00, 0.00, 0.00
204, -8331.39, -8455.15, -8884.95, -8554.88, -159755.67, -152802.69, -154353.08, -153801.00, 0.00, 0.00, 0.00
205, -8376.56, -8496.64, -8925.23, -8594.02, -159796.59, -152843.50, -154396.44, -153845.13, 0.00, 0.00, 0.00
206, -8356.24, -8477.93, -8907.08, -8576.39, -159778.22, -152825.27, -154377.25, -153825.61, -0.11, -0.03, 0.98
207, -8306.56, -8432.06, -8862.42, -8532.91, -159732.91, -152780.16, -154329.58, -153777.05, 0.00, 0.00, 0.00
208, -8319.74, -8444.04, -8873.93, -8544.16, -159744.58, -152791.92, -154341.89, -153789.70, 0.00, 0.00, 0.00
209, -8368.78, -8488.97, -8917.61, -8586.67, -159788.72, -152836.13, -154388.75, -153837.42, 0.00, 0.00, 0.00
210, -8359.49, -8480.50, -8909.45, -8578.53, -159780.41, -152827.86, -154380.19, -153828.70, 0.00, 0.00, 0.00
211, -8308.63, -8433.85, -8864.17, -8534.34, -159734.39, -152781.97, -154331.59, -153779.28, 0.00, 0.00, 0.00
212, -8310.87, -8435.82, -8865.98, -8536.15, -159736.22, -152784.03, -154333.58, -153781.25, 0.00, 0.00, 0.00
213, -8362.39, -8483.18, -8912.00, -8581.01, -159782.94, -152830.70, -154383.03, -153831.56, 0.00, 0.00, 0.00
214, -8366.17, -8486.55, -8915.40, -8584.23, -159786.33, -152834.20, -154386.88, -153835.47, 0.00, 0.00, 0.00
215, -8317.24, -8441.81, -8871.90, -8541.99, -159742.28, -152790.19, -154340.25, -153787.84, 0.00, 0.00, 0.00
216, -8308.34, -8433.85, -8864.12, -8534.63, -159734.36, -152782.42, -154331.75, -153779.13, -0.11, -0.03, 0.97
217, -8357.34, -8478.89, -8907.82, -8577.28, -159778.67, -152826.89, -154378.70, -153827.03, 0.00, 0.00, 0.00
218, -8375.65, -8495.79, -8924.31, -8593.26, -159795.39, -152843.69, -154396.64, -153845.31, 0.00, 0.00, 0.00
219, -8330.20, -8454.08, -8884.01, -8553.95, -159754.42, -152802.72, -154353.19, -153800.89, 0.00, 0.00, 0.00
220, -8306.09, -8431.77, -8862.33, -8532.80, -159732.42, -152780.67, -154329.80, -153777.06, 0.00, 0.00, 0.00
221, -8347.30, -8469.54, -8898.74, -8568.25, -159769.42, -152817.78, -154369.13, -153817.38, 0.00, 0.00, 0.00
222, -8376.45, -8496.21, -8924.67, -8593.44, -159795.70, -152844.27, -154397.39, -153846.19, 0.00, 0.00, 0.00
223, -8338.27, -8461.28, -8890.90, -8560.47, -159761.25, -152809.94, -154360.92, -153808.88, 0.00, 0.00, 0.00
224, -8305.42, -8431.32, -8861.84, -8532.29, -159731.64, -152780.34, -154329.31, -153776.39, 0.00, 0.00, 0.00
225, -8340.20, -8463.29, -8892.69, -8562.55, -159763.20, -152811.97, -154362.84, -153810.66, 0.00, 0.00, 0.00
226, -8380.25, -8500.12, -8928.45, -8597.40, -159799.64, -152848.53, -154401.69, -153850.45, -0.11, -0.03, 0.97
227, -8349.56, -8471.85, -8901.07, -8570.69, -159771.81, -152820.70, -154372.30, -153820.41, 0.00, 0.00, 0.00
228, -8305.21, -8431.06, -8861.44, -8532.02, -159731.42, -152780.27, -154329.33, -153776.36, 0.00, 0.00, 0.00
229, -8329.35, -8453.18, -8882.81, -8552.83, -159753.25, -152802.23, -154352.52, -153800.20, 0.00, 0.00, 0.00
230, -8377.39, -8497.44, -8925.70, -8594.76, -159797.06, -152846.31, -154399.39, -153848.22, 0.00, 0.00, 0.00
231, -8358.12, -8479.65, -8908.49, -8577.97, -159779.45, -152828.70, -154380.95, -153829.23, 0.00, 0.00, 0.00
232, -8305.71, -8431.39, -8861.77, -8532.08, -159731.55, -152780.69, -154329.94, -153776.91, 0.00, 0.00, 0.00
233, -8318.31, -8443.04, -8872.90, -8542.97, -159742.92, -152792.27, -154342.02, -153789.31, 0.00, 0.00, 0.00
234, -8374.57, -8495.14, -8923.35, -8592.66, -159794.69, -152844.42, -154397.13, -153845.80, 0.00, 0.00, 0.00
235, -8367.22, -8488.16, -8916.76, -8586.06, -159788.02, -152837.63, -154390.25, -153838.77, 0.00, 0.00, 0.00
236, -8311.99, -8437.16, -8867.47, -8537.47, -159737.39, -152786.63, -154336.36, -153783.34, -0.12, -0.04, 0.97
237, -8311.58, -8436.75, -8866.96, -8537.03, -159736.84, -152786.38, -154335.84, -153782.81, 0.00, 0.00, 0.00
238, -8367.31, -8488.37, -8916.74, -8586.20, -159788.06, -152838.19, -154390.44, -153838.94, 0.00, 0.00, 0.00
239, -8372.67, -8493.10, -8921.25, -8590.60, -159792.77, -152843.03, -154395.88, -153844.58, 0.00, 0.00, 0.00
240, -8317.06, -8441.56, -8871.61, -8541.56, -159741.59, -152791.41, -154341.50, -153788.84, 0.00, 0.00, 0.00
241, -8302.26, -8427.75, -8858.13, -8528.44, -159727.84, -152777.67, -154326.78, -153773.94, 0.00, 0.00, 0.00
242, -8355.53, -8477.14, -8905.65, -8575.42, -159776.80, -152827.30, -154378.95, -153827.31, 0.00, 0.00, 0.00
243, -8379.67, -8499.56, -8927.49, -8596.93, -159799.03, -152849.88, -154402.69, -153851.70, 0.00, 0.00, 0.00
244, -8326.52, -8450.05, -8879.72, -8549.63, -159750.02, -152800.36, -154350.84, -153798.48, 0.00, 0.00, 0.00
245, -8296.16, -8421.91, -8852.43, -8522.74, -159722.13, -152772.14, -154321.11, -153768.13, -0.12, -0.04, 0.97
246, -8343.10, -8465.54, -8894.36, -8564.18, -159765.23, -152815.78, -154366.89, -153815.02, 0.00, 0.00, 0.00
247, -8382.11, -8501.75, -8929.32, -8598.81, -159800.97, -152852.13, -154404.91, -153853.83, 0.00, 0.00, 0.00
248, -8340.55, -8463.40, -8892.46, -8562.42, -159763.16, -152813.97, -154364.83, -153812.72, 0.00, 0.00, 0.00
249, -8295.89, -8421.96, -8852.34, -8522.85, -159722.25, -152772.63, -154321.59, -153768.50, 0.00, 0.00, 0.00
250, -8331.72, -8454.86, -8883.95, -8554.10, -159754.70, -152805.50, -154356.00, -153803.83, 0.00, 0.00, 0.00
251, -8379.87, -8499.38, -8926.82, -8596.30, -159798.50, -152849.77, -154402.47, -153851.36, 0.00, 0.00, 0.00
252, -8345.09, -8466.93, -8895.59, -8565.39, -159766.59, -152817.69, -154369.09, -153817.17, 0.00, 0.00, 0.00
253, -8289.68, -8415.61, -8846.08, -8516.60, -159716.16, -152766.84, -154315.91, -153762.73, 0.00, 0.00, 0.00
254, -8316.86, -8440.85, -8870.33, -8540.51, -159740.98, -152791.98, -154341.92, -153789.52, 0.00, 0.00, 0.00
255, -8376.54, -8496.32, -8923.69, -8593.15, -159795.31, -152846.91, -154399.36, -153848.22, -0.12, -0.04, 0.97
0, -8355.66, -8476.65, -8904.78, -8574.46, -159775.98, -152827.59, -154379.42, -153827.81, 0.00, 0.00, 0.00
1, -8295.25, -8420.82, -8851.00, -8521.49, -159721.33, -152772.38, -154321.84, -153768.53, 0.00, 0.00, 0.00
2, -8307.45, -8432.20, -8861.84, -8532.33, -159732.47, -152783.75, -154333.42, -153780.48, 0.00, 0.00, 0.00
3, -8368.65, -8488.66, -8916.13, -8585.77, -159787.67, -152839.61, -154391.81, -153840.70, 0.00, 0.00, 0.00
4, -8362.99, -8483.07, -8910.95, -8580.48, -159782.38, -152834.34, -154386.56, -153835.30, 0.00, 0.00, 0.00
5, -8301.06, -8425.87, -8856.19, -8526.41, -159726.61, -152777.98, -154327.61, -153774.55, 0.00, 0.00, 0.00
6, -8299.83, -8425.00, -8855.34, -8525.71, -159725.72, -152777.19, -154326.42, -153773.31, 0.00, 0.00, 0.00
7, -8365.79, -8486.20, -8914.23, -8583.79, -159785.55, -152837.58, -154389.42, -153838.20, 0.00, 0.00, 0.00
8, -8378.75, -8498.29, -8925.88, -8595.18, -159797.44, -152849.61, -154402.14, -153851.25, 0.00, 0.00, 0.00
9, -8318.34, -8442.52, -8872.32, -8542.46, -159742.92, -152794.86, -154344.80, -153792.09, -0.11, -0.03, 0.97
10, -8298.33, -8424.01, -8854.53, -8525.02, -159724.88, -152776.69, -154325.73, -153772.38, 0.00, 0.00, 0.00
11, -8353.41, -8474.73, -8903.01, -8572.72, -159774.27, -152826.56, -154377.84, -153826.20, 0.00, 0.00, 0.00
12, -8380.94, -8500.12, -8927.42, -8596.61, -159798.97, -152851.53, -154404.14, -153853.28, 0.00, 0.00, 0.00
13, -8329.76, -8452.96, -8882.38, -8552.36, -159753.20, -152805.38, -154355.95, -153803.56, 0.00, 0.00, 0.00
14, -8297.08, -8423.05, -8853.64, -8524.22, -159724.11, -152776.11, -154325.06, -153771.70, 0.00, 0.00, 0.00
15, -8343.10, -8465.30, -8894.12, -8563.94, -159765.09, -152817.58, -154368.50, -153816.45, 0.00, 0.00, 0.00
16, -8381.41, -8500.46, -8927.80, -8597.00, -159799.25, -152852.11, -154404.81, -153854.05, 0.00, 0.00, 0.00
17, -8339.66, -8461.92, -8890.92, -8560.81, -159761.92, -152814.47, -154365.48, -153813.53, 0.00, 0.00, 0.00
18, -8292.97, -8418.83, -8849.50, -8520.17, -159719.95, -152772.27, -154321.16, -153767.91, 0.00, 0.00, 0.00
19, -8329.74, -8452.98, -8882.16, -8552.34, -159753.09, -152805.84, -154356.09, -153803.73, -0.11, -0.03, 0.97
20, -8378.48, -8497.71, -8925.19, -8594.45, -159796.86, -152849.98, -154402.53, -153851.48, 0.00, 0.00, 0.00
21, -8349.18, -8470.68, -8899.24, -8568.97, -159770.58, -152823.45, -154374.95, -153823.09, 0.00, 0.00, 0.00
22, -8296.21, -8421.96, -8852.32, -8522.99, -159722.91, -152775.44, -154324.42, -153771.33, 0.00, 0.00, 0.00
23, -8316.99, -8441.05, -8870.67, -8541.00, -159741.45, -152794.39, -154344.11, -153791.55, 0.00, 0.00, 0.00
24, -8370.37, -8490.09, -8917.83, -8587.34, -159789.53, -152843.02, -154395.47, -153844.19, 0.00, 0.00, 0.00
25, -8356.74, -8477.50, -8905.69, -8575.40, -159777.22, -152830.58, -154382.58, -153831.00, 0.00, 0.00, 0.00
26, -8299.63, -8424.80, -8854.96, -8525.45, -159725.38, -152778.44, -154327.59, -153774.66, 0.00, 0.00, 0.00
27, -8305.71, -8430.38, -8860.14, -8530.65, -159730.88, -152784.00, -154333.31, -153780.58, 0.00, 0.00, 0.00
28, -8363.73, -8484.05, -8911.89, -8581.48, -159783.67, -152837.30, -154389.47, -153838.09, 0.00, 0.00, 0.00
29, -8366.21, -8486.38, -8914.37, -8583.83, -159786.09, -152839.66, -154392.19, -153840.72, -0.12, -0.04, 0.98
30, -8308.84, -8433.38, -8863.20, -8533.61, -159733.78, -152787.17, -154336.75, -153783.94, 0.00, 0.00, 0.00
31, -8301.71, -8426.81, -8856.88, -8527.50, -159727.48, -152780.84, -154329.77, -153776.95, 0.00, 0.00, 0.00
32, -8357.63, -8478.53, -8906.79, -8576.63, -159778.48, -152832.42, -154384.08, -153832.50, 0.00, 0.00, 0.00
33, -8371.22, -8491.03, -8918.95, -8588.48, -159790.73, -152844.83, -154397.52, -153846.25, 0.00, 0.00, 0.00
34, -8318.51, -8442.23, -8871.83, -8542.28, -159742.64, -152796.47, -154346.41, -153793.83, 0.00, 0.00, 0.00
35, -8295.65, -8420.93, -8851.04, -8521.98, -159721.52, -152775.27, -154323.86, -153770.88, 0.00, 0.00, 0.00
36, -8344.51, -8466.17, -8894.76, -8564.76, -159766.11, -152820.30, -154371.45, -153819.58, 0.00, 0.00, 0.00
37, -8372.09, -8491.52, -8919.33, -8588.79, -159791.25, -152845.61, -154398.48, -153847.28, 0.00, 0.00, 0.00
38, -8327.28, -8450.10, -8879.39, -8549.52, -159750.44, -152804.61, -154355.06, -153802.73, 0.00, 0.00, 0.00
39, -8296.30, -8421.71, -8851.98, -8522.76, -159722.36, -152776.45, -154324.97, -153771.64, -0.11, -0.04, 0.98
40, -8337.33, -8459.67, -8888.64, -8558.84, -159759.88, -152814.33, -154364.88, -153812.73, 0.00, 0.00, 0.00
41, -8374.80, -8494.11, -8921.94, -8591.41, -159793.86, -152848.67, -154401.64, -153850.56, 0.00, 0.00, 0.00
42, -8340.06, -8462.04, -8891.01, -8560.94, -159762.28, -152816.88, -154368.03, -153815.89, 0.00, 0.00, 0.00
43, -8294.82, -8420.21, -8850.42, -8521.22, -159720.95, -152775.22, -154323.75, -153770.41, 0.00, 0.00, 0.00
44, -8322.14, -8445.36, -8874.45, -8544.83, -159745.66, -152800.31, -154350.25, -153797.83, 0.00, 0.00, 0.00
45, -8371.22, -8490.69, -8918.41, -8587.96, -159790.47, -152845.56, -154398.38, -153847.44, 0.00, 0.00, 0.00
46, -8346.90, -8468.00, -8896.64, -8566.46, -159768.23, -152823.16, -154374.80, -153823.09, 0.00, 0.00, 0.00
47, -8297.35, -8422.47, -8852.43, -8523.23, -159723.08, -152777.66, -154326.36, -153773.09, 0.00, 0.00, 0.00
48, -8312.93, -8436.84, -8866.18, -8536.87, -159737.27, -152792.19, -154341.72, -153788.92, 0.00, 0.00, 0.00
49, -8364.89, -8484.63, -8912.45, -8582.26, -159784.64, -152840.16, -154392.75, -153841.63, -0.11, -0.04, 0.97
50, -8356.58, -8477.03, -8905.31, -8575.18, -159777.22, -152832.66, -154384.81, -153833.39, 0.00, 0.00, 0.00
51, -8301.79, -8426.54, -8856.45, -8527.12, -159727.14, -152782.11, -154331.09, -153777.89, 0.00, 0.00, 0.00
52, -8305.44, -8429.92, -8859.67, -8530.27, -159730.45, -152785.52, -154334.52, -153781.53, 0.00, 0.00, 0.00
53, -8361.16, -8481.44, -8909.52, -8579.25, -159781.58, -152837.20, -154389.33, -153838.25, 0.00, 0.00, 0.00
54, -8365.63, -8485.59, -8913.63, -8583.38, -159785.83, -152841.58, -154394.09, -153843.08, 0.00, 0.00, 0.00
55, -8312.86, -8436.82, -8866.49, -8537.11, -159737.50, -152792.83, -154342.23, -153789.16, 0.00, 0.00, 0.00
56, -8301.53, -8426.38, -8856.21, -8527.19, -159727.03, -152782.45, -154330.98, -153777.63, 0.00, 0.00, 0.00
57, -8352.44, -8473.26, -8901.51, -8571.67, -159773.55, -152829.52, -154381.08, -153829.70, 0.00, 0.00, 0.00
58, -8370.93, -8490.31, -8918.32, -8587.96, -159790.56, -152846.72, -154399.61, -153848.84, 0.00, 0.00, 0.00
59, -8322.14, -8445.47, -8874.83, -8545.34, -159746.06, -152801.81, -154351.73, -153799.02, -0.11, -0.04, 0.97
60, -8298.44, -8423.57, -8853.53, -8524.53, -159724.31, -152779.94, -154328.19, -153774.61, 0.00, 0.00, 0.00
61, -8344.67, -8466.28, -8894.83, -8565.10, -159766.67, -152822.94, -154373.91, -153822.23, 0.00, 0.00, 0.00
62, -8373.19, -8492.48, -8920.22, -8589.89, -159792.75, -152849.31, -154402.25, -153851.77, 0.00, 0.00, 0.00
63, -8329.40, -8451.89, -8880.93, -8551.22, -159752.42, -152808.55, -154359.06, -153806.73, 0.00, 0.00, 0.00
64, -8294.24, -8419.59, -8849.59, -8520.53, -159720.27, -152776.16, -154324.28, -153770.52, 0.00, 0.00, 0.00
65, -8331.68, -8454.17, -8883.07, -8553.45, -159754.59, -152811.14, -154361.44, -153809.33, 0.00, 0.00, 0.00
66, -8371.31, -8490.60, -8918.37, -8588.01, -159790.89, -152847.97, -154400.97, -153850.67, 0.00, 0.00, 0.00
67, -8337.96, -8459.78, -8888.44, -8558.50, -159760.23, -152816.95, -154367.98, -153816.19, 0.00, 0.00, 0.00
68, -8293.03, -8418.34, -8848.23, -8519.08, -159718.91, -152775.16, -154323.19, -153769.31, -0.12, -0.03, 0.97
69, -8320.97, -8444.22, -8873.33, -8543.80, -159744.69, -152801.38, -154351.11, -153798.48, 0.00, 0.00, 0.00
70, -8370.75, -8490.15, -8917.83, -8587.70, -159790.53, -152847.95, -154400.92, -153850.58, 0.00, 0.00, 0.00
71, -8350.08, -8471.07, -8899.37, -8569.46, -159771.58, -152828.69, -154380.52, -153829.14, 0.00, 0.00, 0.00
72, -8297.33, -8422.34, -8852.14, -8522.97, -159722.92, -152779.47, -154327.86, -153773.97, 0.00, 0.00, 0.00
73, -8312.43, -8436.44, -8865.68, -8536.40, -159737.00, -152793.84, -154342.88, -153789.86, 0.00, 0.00, 0.00
74, -8364.67, -8484.63, -8912.18, -8582.06, -159785.11, -152842.63, -154395.34, -153844.91, 0.00, 0.00, 0.00
75, -8357.54, -8477.82, -8905.74, -8575.67, -159778.36, -152835.91, -154388.25, -153837.38, 0.00, 0.00, 0.00
76, -8304.83, -8429.11, -8858.82, -8529.43, -159729.86, -152786.75, -154335.38, -153781.78, 0.00, 0.00, 0.00
77, -8305.46, -8429.83, -8859.38, -8530.07, -159730.55, -152787.44, -154336.05, -153782.48, 0.00, 0.00, 0.00
78, -8360.02, -8480.27, -8908.22, -8578.20, -159780.86, -152838.52, -154390.78, -153840.09, -0.11, -0.03, 0.97
79, -8367.98, -8487.72, -8915.48, -8585.35, -159788.23, -152846.20, -154398.94, -153848.59, 0.00, 0.00, 0.00
80, -8311.81, -8435.70, -8865.04, -8535.73, -159736.27, -152793.53, -154342.75, -153789.66, 0.00, 0.00, 0.00
81, -8297.59, -8422.56, -8852.21, -8523.14, -159723.14, -152780.41, -154328.44, -153774.72, 0.00, 0.00, 0.00
82, -8347.53, -8468.67, -8896.80, -8567.00, -159769.25, -152827.30, -154378.78, -153827.53, 0.00, 0.00, 0.00
83, -8369.77, -8489.33, -8916.87, -8586.74, -159789.86, -152848.23, -154401.36, -153851.02, 0.00, 0.00, 0.00
84, -8323.28, -8446.46, -8875.34, -8545.79, -159747.05, -152804.77, -154354.53, -153801.81, 0.00, 0.00, 0.00
85, -8293.95, -8419.14, -8848.81, -8519.84, -159719.77, -152777.23, -154324.94, -153770.88, 0.00, 0.00, 0.00
86, -8338.23, -8460.11, -8888.37, -8558.86, -159760.67, -152818.89, -154369.64, -153817.86, 0.00, 0.00, 0.00
87, -8372.45, -8491.76, -8919.08, -8589.01, -159792.23, -152851.06, -154404.22, -153854.20, 0.00, 0.00, 0.00
88, -8334.29, -8456.65, -8885.22, -8555.67, -159757.13, -152815.36, -154365.88, -153813.64, -0.11, -0.03, 0.98
89, -8296.36, -8421.49, -8851.22, -8522.27, -159722.14, -152779.91, -154327.56, -153773.25, 0.00, 0.00, 0.00
90, -8329.89, -8452.36, -8880.95, -8551.75, -159753.03, -152811.41, -154361.45, -153809.23, 0.00, 0.00, 0.00
91, -8373.61, -8492.72, -8920.22, -8590.29, -159793.52, -152852.48, -154405.80, -153855.92, 0.00, 0.00, 0.00
92, -8345.09, -8466.30, -8894.74, -8565.05, -159767.06, -152825.72, -154376.97, -153825.34, 0.00, 0.00, 0.00
93, -8295.36, -8420.06, -8849.79, -8520.71, -159720.84, -152778.84, -154326.47, -153772.20, 0.00, 0.00, 0.00
94, -8316.79, -8439.59, -8868.72, -8539.33, -159740.58, -152799.09, -154348.33, -153795.44, 0.00, 0.00, 0.00
95, -8368.49, -8487.34, -8915.26, -8585.06, -159788.66, -152847.91, -154401.11, -153851.17, 0.00, 0.00, 0.00
96, -8349.43, -8469.77, -8897.96, -8568.09, -159770.67, -152829.69, -154381.75, -153830.72, 0.00, 0.00, 0.00
97, -8295.78, -8420.19, -8849.82, -8520.69, -159720.91, -152779.17, -154327.30, -153772.89, 0.00, 0.00, 0.00
98, -8306.35, -8429.87, -8859.31, -8529.98, -159730.86, -152789.45, -154338.14, -153784.44, -0.15, -0.13, 1.10
99, -8363.89, -8483.20, -8911.30, -8580.99, -159784.41, -152843.95, -154396.77, -153846.41, 0.00, 0.00, 0.00
100, -8362.32, -8481.91, -8910.08, -8579.83, -159782.92, -152842.44, -154395.14, -153844.58, 0.00, 0.00, 0.00
101, -8305.37, -8429.29, -8858.93, -8529.58, -159730.19, -152788.97, -154337.58, -153783.75, 0.00, 0.00, 0.00
102, -8299.67, -8423.59, -8853.39, -8524.04, -159724.83, -152783.67, -154331.86, -153777.88, 0.00, 0.00, 0.00
103, -8354.37, -8474.44, -8902.34, -8572.61, -159775.14, -152834.98, -154386.95, -153836.23, 0.00, 0.00, 0.00
104, -8363.67, -8482.80, -8910.57, -8580.54, -159783.66, -152843.61, -154396.59, -153846.36, 0.00, 0.00, 0.00
105, -8310.22, -8433.25, -8862.76, -8533.36, -159734.59, -152793.70, -154342.97, -153789.70, 0.00, 0.00, 0.00
106, -8290.13, -8414.81, -8844.47, -8515.57, -159715.69, -152774.75, -154322.52, -153768.39, 0.00, 0.00, 0.00
107, -8339.53, -8460.25, -8888.48, -8558.75, -159761.09, -152821.02, -154372.30, -153821.14, 0.00, 0.00, 0.00
108, -8364.85, -8483.60, -8911.22, -8581.10, -159784.53, -152844.80, -154398.11, -153848.23, 0.00, 0.02, 0.98
109, -8318.80, -8441.23, -8870.22, -8540.80, -159742.19, -152801.81, -154351.80, -153799.06, 0.00, 0.00, 0.00
110, -8287.74, -8412.53, -8842.37, -8513.31, -159713.53, -152772.94, -154320.34, -153765.78, 0.00, 0.00, 0.00
111, -8329.09, -8450.57, -8879.05, -8549.56, -159751.44, -152811.66, -154362.06, -153810.28, 0.00, 0.00, 0.00
112, -8365.86, -8484.72, -8912.06, -8582.20, -159785.55, -152846.34, -154399.63, -153850.11, 0.00, 0.00, 0.00
113, -8330.52, -8451.89, -8880.71, -8551.15, -159753.20, -152813.23, -154363.94, -153811.89, 0.00, 0.00, 0.00
114, -8288.45, -8412.95, -8842.93, -8513.94, -159714.27, -152773.75, -154321.27, -153766.41, 0.00, 0.00, 0.00
115, -8317.75, -8439.95, -8868.70, -8539.42, -159740.94, -152801.14, -154350.88, -153798.30, 0.00, 0.00, 0.00
116, -8362.35, -8481.01, -8908.53, -8578.62, -159781.86, -152842.97, -154396.25, -153846.78, 0.00, 0.00, 0.00
117, -8338.30, -8459.06, -8887.34, -8557.77, -159759.78, -152820.45, -154371.92, -153820.47, 0.00, 0.00, 0.00
118, -8289.01, -8413.60, -8843.11, -8514.34, -159714.19, -152774.14, -154321.69, -153766.97, -0.07, -0.05, 1.00
119, -8309.17, -8432.22, -8860.95, -8532.13, -159732.73, -152793.30, -154342.08, -153788.98, 0.00, 0.00, 0.00
120, -8358.97, -8478.17, -8905.40, -8576.12, -159778.84, -152840.31, -154393.16, -153843.52, 0.00, 0.00, 0.00
121, -8345.63, -8465.70, -8893.54, -8564.18, -159766.78, -152827.98, -154380.05, -153829.30, 0.00, 0.00, 0.00
122, -8295.51, -8419.37, -8848.85, -8520.22, -159720.86, -152781.14, -154329.05, -153774.77, 0.00, 0.00, 0.00
123, -8304.72, -8427.97, -8857.19, -8528.38, -159729.63, -152790.16, -154338.39, -153784.63, 0.00, 0.00, 0.00
124, -8356.76, -8475.80, -8903.57, -8573.93, -159777.80, -152839.41, -154391.81, -153841.58, 0.00, 0.00, 0.00
125, -8355.80, -8474.71, -8902.70, -8572.92, -159776.98, -152838.52, -154391.30, -153840.92, 0.00, 0.00, 0.00
126, -8305.15, -8427.84, -8857.50, -8528.35, -159730.39, -152791.06, -154339.61, -153785.55, 0.00, 0.00, 0.00
127, -8298.08, -8421.27, -8851.09, -8522.16, -159723.86, -152784.66, -154332.47, -153777.92, 0.00, 0.00, 0.00
128, -8348.85, -8468.20, -8896.37, -8566.89, -159770.83, -152832.66, -154384.52, -153833.58, -0.13, -0.04, 1.01
129, -8361.61, -8479.83, -8907.73, -8577.97, -159782.67, -152844.70, -154397.80, -153847.88, 0.00, 0.00, 0.00
130, -8312.52, -8434.56, -8863.99, -8534.88, -159737.34, -152798.48, -154347.73, -153794.23, 0.00, 0.00, 0.00
131, -8291.63, -8415.41, -8845.17, -8516.44, -159717.89, -152778.84, -154326.23, -153771.44, 0.00, 0.00, 0.00
132, -8337.83, -8458.06, -8886.34, -8557.05, -159760.42, -152822.33, -154373.34, -153821.89, 0.00, 0.00, 0.00
133, -8364.60, -8482.87, -8910.46, -8580.70, -159785.17, -152847.61, -154400.91, -153851.28, 0.00, 0.00, 0.00
134, -8324.86, -8446.50, -8875.36, -8546.26, -159748.73, -152810.36, -154360.41, -153807.63, 0.00, 0.00, 0.00
135, -8290.87, -8415.03, -8844.72, -8516.13, -159717.20, -152778.34, -154325.53, -153770.66, 0.00, 0.00, 0.00
136, -8326.81, -8448.22, -8876.50, -8547.66, -159750.13, -152812.08, -154362.33, -153810.22, 0.00, 0.00, 0.00
137, -8364.54, -8483.25, -8910.25, -8580.99, -159785.00, -152847.75, -154401.05, -153851.45, 0.00, 0.00, 0.00
138, -8333.65, -8454.93, -8882.94, -8554.19, -159756.66, -152818.89, -154369.61, -153817.66, -0.15, -0.05, 1.01
139, -8291.69, -8416.06, -8845.30, -8517.27, -159717.78, -152779.38, -154326.66, -153771.92, 0.00, 0.00, 0.00
140, -8317.44, -8439.88, -8867.99, -8539.73, -159741.25, -152803.50, -154352.80, -153800.19, 0.00, 0.00, 0.00
141, -8361.65, -8480.63, -8907.37, -8578.51, -159781.89, -152845.00, -154397.98, -153848.50, 0.00, 0.00, 0.00
142, -8341.04, -8461.79, -8889.22, -8560.65, -159763.06, -152825.73, -154377.14, -153826.02, 0.00, 0.00, 0.00
143, -8292.81, -8417.33, -8846.17, -8518.32, -159718.39, -152780.45, -154327.86, -153773.33, 0.00, 0.00, 0.00
144, -8306.94, -8430.52, -8858.58, -8530.68, -159731.14, -152793.75, -154342.19, -153789.03, 0.00, 0.00, 0.00
145, -8357.52, -8477.41, -8903.84, -8575.27, -159777.70, -152841.36, -154393.84, -153844.09, 0.00, 0.00, 0.00
146, -8349.25, -8469.77, -8896.75, -8568.18, -159770.31, -152833.75, -154385.58, -153835.11, 0.00, 0.00, 0.00
147, -8296.99, -8421.56, -8850.04, -8522.18, -159722.09, -152784.58, -154332.36, -153778.34, -0.12, -0.02, 1.13
148, -8298.87, -8423.28, -8851.45, -8523.55, -159723.58, -152786.33, -154334.14, -153780.42, 0.00, 0.00, 0.00
149, -8349.07, -8469.46, -8896.04, -8567.51, -159769.73, -152833.48, -154385.33, -153835.14, 0.00, 0.00, 0.00
150, -8355.84, -8476.21, -8902.68, -8574.13, -159776.20, -152840.19, -154392.41, -153842.30, 0.00, 0.00, 0.00
151, -8310.04, -8434.05, -8861.97, -8534.14, -159734.02, -152797.33, -154346.09, -153792.95, 0.00, 0.00, 0.00
152, -8306.78, -8431.12, -8858.82, -8531.37, -159730.91, -152794.59, -154343.11, -153790.25, 0.00, 0.00, 0.00
153, -8332.73, -8455.08, -8881.73, -8553.70, -159754.08, -152817.89, -154367.75, -153815.78, 0.00, 0.00, 0.00
154, -8332.89, -8455.11, -8881.78, -8553.52, -159753.67, -152817.23, -154366.80, -153814.19, 0.00, 0.00, 0.00
155, -8313.62, -8437.45, -8864.79, -8537.16, -159736.80, -152800.70, -154349.66, -153797.08, 0.00, 0.00, 0.00
156, -8311.94, -8436.24, -8863.61, -8536.18, -159735.91, -152800.25, -154349.34, -153797.45, 0.00, 0.00, 0.00
157, -8328.91, -8451.62, -8878.40, -8550.46, -159750.61, -152814.77, -154364.36, -153812.45, -0.25, 0.01, 1.09
158, -8336.46, -8458.62, -8885.24, -8556.87, -159757.03, -152820.91, -154370.39, -153817.92, 0.00, 0.00, 0.00
159, -8320.82, -8444.38, -8871.50, -8543.66, -159743.47, -152807.66, -154356.63, -153804.22, 0.00, 0.00, 0.00
160, -8310.85, -8435.19, -8862.58, -8535.19, -159735.00, -152799.58, -154348.64, -153796.78, 0.00, 0.00, 0.00
161, -8321.82, -8444.91, -8871.74, -8543.89, -159744.11, -152808.55, -154357.98, -153806.13, 0.00, 0.00, 0.00
162, -8331.34, -8453.45, -8879.92, -8551.64, -159752.00, -152816.19, -154365.64, -153813.23, 0.00, 0.00, 0.00
163, -8318.34, -8441.56, -8868.50, -8540.60, -159740.69, -152805.14, -154354.28, -153801.83, 0.00, 0.00, 0.00
164, -8304.50, -8428.89, -8856.25, -8528.84, -159728.78, -152793.69, -154342.70, -153790.80, 0.00, 0.00, 0.00
165, -8316.57, -8440.04, -8866.91, -8539.19, -159739.48, -152804.33, -154353.59, -153801.70, 0.00, 0.00, 0.00
166, -8331.39, -8453.56, -8880.04, -8551.75, -159752.30, -152816.80, -154366.23, -153813.86, 0.00, 0.00, 0.00
167, -8324.95, -8447.75, -8874.58, -8546.57, -159746.91, -152811.56, -154360.94, -153808.34, -0.14, -0.02, 1.02
168, -8311.09, -8435.21, -8862.44, -8535.17, -159735.13, -152800.45, -154349.63, -153797.45, 0.00, 0.00, 0.00
169, -8316.95, -8440.51, -8867.45, -8540.00, -159740.27, -152805.59, -154354.86, -153802.89, 0.00, 0.00, 0.00
170, -8333.40, -8455.58, -8882.05, -8553.90, -159754.59, -152819.44, -154368.94, -153816.55, 0.00, 0.00, 0.00
171, -8330.36, -8452.83, -8879.43, -8551.38, -159752.06, -152817.00, -154366.44, -153813.80, 0.00, 0.00, 0.00
172, -8312.97, -8436.84, -8864.03, -8536.64, -159737.08, -152802.48, -154351.69, -153799.58, 0.00, 0.00, 0.00
173, -8313.71, -8437.36, -8864.50, -8536.98, -159737.50, -152803.19, -154352.47, -153800.53, 0.00, 0.00, 0.00
174, -8328.91, -8450.93, -8877.71, -8549.36, -159750.50, -152815.83, -154365.39, -153812.94, 0.00, 0.00, 0.00
175, -8328.64, -8450.46, -8877.38, -8548.89, -159750.30, -152815.39, -154364.97, -153812.25, 0.00, 0.00, 0.00
176, -8311.34, -8434.61, -8862.15, -8534.25, -159735.44, -152800.91, -154350.30, -153797.88, 0.00, 0.00, 0.00
177, -8309.84, -8433.33, -8860.95, -8533.16, -159734.36, -152800.09, -154349.55, -153797.39, -0.12, -0.04, 1.03
178, -8325.76, -8447.60, -8874.89, -8546.32, -159748.11, -152813.47, -154363.00, -153810.66, 0.00, 0.00, 0.00
179, -8331.03, -8452.27, -8879.45, -8550.64, -159752.66, -152817.83, -154367.41, -153814.64, 0.00, 0.00, 0.00
180, -8317.96, -8440.58, -8868.26, -8540.00, -159741.78, -152807.36, -154356.81, -153804.31, 0.00, 0.00, 0.00
181, -8310.78, -8434.03, -8861.88, -8533.90, -159735.69, -152801.53, -154350.91, -153798.86, 0.00, 0.00, 0.00
182, -8323.66, -8445.70, -8873.02, -8544.38, -159746.61, -152812.33, -154361.97, -153809.56, 0.00, 0.00, 0.00
183, -8328.68, -8449.85, -8877.04, -8548.00, -159750.53, -152815.98, -154365.75, -153812.88, 0.00, 0.00, 0.00
184, -8317.60, -8439.77, -8867.58, -8539.06, -159741.34, -152807.09, -154356.67, -153803.94, 0.00, 0.00, 0.00
185, -8309.77, -8432.84, -8860.86, -8532.96, -159735.02, -152801.38, -154350.72, -153798.44, 0.00, 0.00, 0.00
186, -8320.91, -8442.79, -8870.49, -8542.10, -159744.52, -152810.75, -154360.27, -153807.91, 0.00, 0.00, 0.00
187, -8332.57, -8453.25, -8880.73, -8551.58, -159754.48, -152820.30, -154370.03, -153817.09, -0.13, -0.05, 1.04
188, -8320.48, -8442.16, -8870.00, -8541.09, -159744.05, -152809.95, -154359.59, -153806.53, 0.00, 0.00, 0.00
189, -8306.15, -8429.04, -8857.28, -8528.96, -159731.64, -152798.06, -154347.55, -153795.03, 0.00, 0.00, 0.00
190, -8314.56, -8436.69, -8864.54, -8535.95, -159738.66, -152805.17, -154354.73, -153802.33, 0.00, 0.00, 0.00
191, -8329.76, -8450.59, -8877.84, -8548.78, -159751.69, -152817.91, -154367.58, -153814.78, 0.00, 0.00, 0.00
192, -8323.39, -8444.94, -8872.44, -8543.57, -159746.38, -152812.61, -154362.22, -153809.28, 0.00, 0.00, 0.00
193, -8308.86, -8431.68, -8859.65, -8531.42, -159733.86, -152800.56, -154350.02, -153797.50, 0.00, 0.00, 0.00
194, -8315.59, -8438.10, -8865.82, -8537.47, -159739.91, -152806.84, -154356.42, -153804.16, 0.00, 0.00, 0.00
195, -8326.76, -8447.93, -8874.96, -8546.12, -159748.88, -152815.39, -154365.14, -153812.50, 0.00, 0.00, 0.00
196, -8323.83, -8445.09, -8872.39, -8543.44, -159746.13, -152812.66, -154362.30, -153809.34, 0.00, 0.00, 0.00
197, -8308.52, -8431.12, -8859.09, -8530.68, -159733.08, -152800.14, -154349.55, -153796.97, -0.14, -0.08, 1.01
198, -8310.11, -8432.71, -8860.50, -8532.20, -159734.66, -152801.92, -154351.42, -153799.20, 0.00, 0.00, 0.00
199, -8324.93, -8446.21, -8873.35, -8544.51, -159747.16, -152814.22, -154363.80, -153811.25, 0.00, 0.00, 0.00
200, -8326.94, -8448.09, -8875.27, -8546.32, -159748.83, -152815.78, -154365.36, -153812.31, 0.00, 0.00, 0.00
201, -8314.71, -8437.13, -8864.97, -8536.58, -159739.00, -152806.27, -154355.64, -153802.89, 0.00, 0.00, 0.00
202, -8311.65, -8434.25, -8862.33, -8534.05, -159736.61, -152804.03, -154353.52, -153801.09, 0.00, 0.00, 0.00
203, -8324.37, -8445.65, -8873.20, -8544.33, -159747.08, -152814.31, -154363.98, -153811.42, 0.00, 0.00, 0.00
204, -8328.06, -8448.71, -8876.10, -8546.90, -159749.72, -152816.77, -154366.38, -153813.41, 0.00, 0.00, 0.00
205, -8315.45, -8437.38, -8865.30, -8536.51, -159739.28, -152806.58, -154355.95, -153803.16, 0.00, 0.00, 0.00
206, -8309.31, -8431.95, -8859.99, -8531.59, -159734.19, -152801.92, -154351.28, -153798.92, 0.00, 0.00, 0.00
207, -8319.16, -8440.71, -8868.19, -8539.46, -159742.19, -152809.84, -154359.36, -153806.80, -0.17, -0.09, 1.00
208, -8328.62, -8449.27, -8876.50, -8547.44, -159750.08, -152817.59, -154367.09, -153814.08, 0.00, 0.00, 0.00
209, -8319.86, -8441.49, -8869.22, -8540.47, -159742.97, -152810.58, -154359.95, -153807.06, 0.00, 0.00, 0.00
210, -8310.89, -8433.47, -8861.48, -8533.16, -159735.66, -152803.61, -154353.03, -153800.52, 0.00, 0.00, 0.00
211, -8316.77, -8438.43, -8866.07, -8537.41, -159739.95, -152807.98, -154357.39, -153804.89, 0.00, 0.00, 0.00
212, -8325.38, -8445.92, -8873.13, -8543.98, -159746.58, -152814.38, -154363.80, -153811.00, 0.00, 0.00, 0.00
213, -8318.89, -8440.33, -8867.81, -8538.90, -159741.31, -152809.14, -154358.61, -153805.61, 0.00, 0.00, 0.00
214, -8307.00, -8429.67, -8857.57, -8529.29, -159731.50, -152799.69, -154349.16, -153796.52, 0.00, 0.00, 0.00
215, -8312.30, -8434.23, -8861.80, -8533.58, -159735.75, -152803.98, -154353.59, -153801.09, 0.00, 0.00, 0.00
216, -8322.54, -8443.35, -8870.42, -8541.61, -159743.80, -152811.73, -154361.39, -153808.66, 0.00, 0.00, 0.00
217, -8319.27, -8440.47, -8867.79, -8539.08, -159741.09, -152809.17, -154358.70, -153805.75, -0.21, -0.09, 0.95
218, -8311.32, -8433.74, -8861.59, -8533.43, -159735.28, -152803.92, -154353.34, -153800.72, 0.00, 0.00, 0.00
219, -8315.63, -8437.74, -8865.39, -8537.20, -159739.13, -152807.86, -154357.44, -153805.02, 0.00, 0.00, 0.00
220, -8324.59, -8445.23, -8872.44, -8543.53, -159745.61, -152814.17, -154363.67, -153810.86, 0.00, 0.00, 0.00
221, -8320.91, -8441.56, -8868.88, -8539.91, -159742.02, -152810.47, -154359.89, -153806.81, 0.00, 0.00, 0.00
222, -8310.15, -8432.13, -8860.14, -8531.59, -159733.63, -152802.38, -154351.89, -153799.05, 0.00, 0.00, 0.00
223, -8311.76, -8433.78, -8861.84, -8533.43, -159735.50, -152804.59, -154354.03, -153801.50, 0.00, 0.00, 0.00
224, -8322.02, -8442.75, -8870.18, -8541.21, -159743.36, -152812.20, -154361.80, -153809.09, 0.00, 0.00, 0.00
225, -8323.88, -8444.22, -8871.54, -8542.43, -159744.58, -152813.31, -154362.75, -153809.77, 0.00, 0.00, 0.00
226, -8314.09, -8435.64, -8863.61, -8535.04, -159737.11, -152806.06, -154355.38, -153802.55, -0.25, -0.09, 0.96
227, -8310.89, -8432.75, -8861.04, -8532.58, -159734.59, -152803.84, -154353.36, -153800.84, 0.00, 0.00, 0.00
228, -8320.66, -8441.18, -8869.02, -8540.00, -159742.08, -152811.36, -154360.97, -153808.27, 0.00, 0.00, 0.00
229, -8325.71, -8445.61, -8873.20, -8543.84, -159746.13, -152815.05, -154364.66, -153811.52, 0.00, 0.00, 0.00
230, -8315.65, -8436.53, -8864.75, -8535.75, -159738.02, -152807.16, -154356.73, -153803.48, 0.00, 0.00, 0.00
231, -8309.33, -8430.83, -8859.61, -8530.79, -159733.09, -152802.58, -154352.14, -153799.31, 0.00, 0.00, 0.00
232, -8317.84, -8438.25, -8866.45, -8537.27, -159739.70, -152809.13, -154358.81, -153806.02, 0.00, 0.00, 0.00
233, -8324.44, -8443.91, -8871.79, -8542.19, -159744.53, -152813.70, -154363.42, -153810.19, 0.00, 0.00, 0.00
234, -8315.23, -8435.53, -8864.05, -8534.70, -159736.88, -152806.17, -154355.83, -153802.48, 0.00, 0.00, 0.00
235, -8308.30, -8429.56, -8858.58, -8529.54, -159731.89, -152801.53, -154351.19, -153798.17, 0.00, 0.00, 0.00
236, -8317.11, -8437.49, -8866.13, -8536.78, -159739.33, -152808.91, -154358.75, -153805.81, -0.31, -0.10, 0.95
237, -8325.17, -8444.38, -8872.61, -8542.66, -159745.23, -152814.63, -154364.41, -153811.17, 0.00, 0.00, 0.00
238, -8318.51, -8438.28, -8866.96, -8537.07, -159739.67, -152809.08, -154358.80, -153805.33, 0.00, 0.00, 0.00
239, -8310.33, -8431.10, -8860.41, -8530.86, -159733.58, -152803.36, -154353.13, -153799.94, 0.00, 0.00, 0.00
240, -8317.11, -8437.38, -8866.36, -8536.73, -159739.44, -152809.34, -154359.28, -153806.28, 0.00, 0.00, 0.00
241, -8326.85, -8445.94, -8874.33, -8544.18, -159746.95, -152816.59, -154366.53, -153813.23, 0.00, 0.00, 0.00
242, -8320.82, -8440.22, -8868.99, -8538.75, -159741.55, -152811.19, -154360.92, -153807.31, 0.00, 0.00, 0.00
243, -8309.13, -8429.71, -8859.09, -8529.43, -159732.06, -152802.16, -154351.78, -153798.45, 0.00, 0.00, 0.00
244, -8309.80, -8430.12, -8859.23, -8529.60, -159732.31, -152802.58, -154352.41, -153799.28, 0.00, 0.00, 0.00
245, -8320.37, -8439.57, -8867.96, -8537.94, -159740.36, -152810.48, -154360.36, -153807.17, 0.00, 0.00, 0.00
246, -8320.19, -8439.64, -8868.05, -8538.01, -159740.11, -152810.11, -154359.72, -153806.23, -0.40, -0.11, 1.00
247, -8311.63, -8432.55, -8861.48, -8532.08, -159733.81, -152804.20, -154353.75, -153800.38, 0.00, 0.00, 0.00
248, -8312.99, -8434.03, -8862.85, -8533.72, -159735.42, -152806.09, -154355.86, -153802.86, 0.00, 0.00, 0.00
249, -8323.28, -8442.88, -8871.05, -8541.43, -159743.28, -152813.75, -154363.59, -153810.64, 0.00, 0.00, 0.00
250, -8324.15, -8443.35, -8871.43, -8541.63, -159743.48, -152813.80, -154363.48, -153810.06, 0.00, 0.00, 0.00
251, -8316.26, -8436.78, -8865.55, -8536.22, -159738.02, -152808.56, -154358.14, -153804.63, 0.00, 0.00, 0.00
252, -8312.95, -8433.96, -8863.00, -8533.85, -159735.66, -152806.58, -154356.27, -153803.11, 0.00, 0.00, 0.00
253, -8322.38, -8442.05, -8870.42, -8540.96, -159742.72, -152813.50, -154363.38, -153810.31, 0.00, 0.00, 0.00
254, -8327.52, -8446.59, -8874.65, -8544.87, -159746.50, -152817.08, -154366.86, -153813.39, 0.00, 0.00, 0.00
255, -8319.92, -8440.17, -8868.84, -8539.46, -159740.94, -152811.81, -154361.30, -153807.75, 0.00, 0.00, 0.00
0, -8313.80, -8434.79, -8863.72, -8534.81, -159736.31, -152807.52, -154357.25, -153804.06, -0.41, -0.12, 0.92
1, -8320.17, -8440.17, -8868.52, -8539.37, -159740.89, -152812.13, -154361.97, -153809.08, 0.00, 0.00, 0.00
2, -8326.09, -8445.29, -8873.13, -8543.51, -159744.94, -152815.92, -154365.75, -153812.45, 0.00, 0.00, 0.00
3, -8316.95, -8437.07, -8865.42, -8536.00, -159737.50, -152808.55, -154358.14, -153804.61, 0.00, 0.00, 0.00
4, -8309.86, -8430.90, -8859.96, -8530.88, -159732.52, -152803.92, -154353.56, -153800.36, 0.00, 0.00, 0.00
5, -8314.67, -8434.92, -8863.49, -8534.30, -159735.94, -152807.52, -154357.28, -153804.34, 0.00, 0.00, 0.00
6, -8324.39, -8443.42, -8871.36, -8541.65, -159743.17, -152814.61, -154364.31, -153811.09, 0.00, 0.00, 0.00
7, -8319.45, -8439.17, -8867.50, -8537.92, -159739.34, -152810.75, -154360.25, -153806.80, 0.00, 0.00, 0.00
8, -8310.58, -8431.64, -8860.59, -8531.64, -159733.08, -152804.81, -154354.41, -153801.20, 0.00, 0.00, 0.00
9, -8314.69, -8435.12, -8863.79, -8534.72, -159736.33, -152808.23, -154358.03, -153804.97, 0.00, 0.00, 0.00
10, -8323.12, -8442.23, -8870.27, -8540.51, -159742.13, -152813.89, -154363.64, -153810.33, -0.43, -0.13, 0.87
11, -8320.93, -8440.42, -8868.66, -8538.90, -159740.38, -152812.09, -154361.61, -153808.05, 0.00, 0.00, 0.00
12, -8311.63, -8432.55, -8861.37, -8532.31, -159733.86, -152805.80, -154355.36, -153801.95, 0.00, 0.00, 0.00
13, -8313.22, -8433.94, -8862.67, -8533.58, -159735.31, -152807.41, -154357.19, -153804.16, 0.00, 0.00, 0.00
14, -8322.38, -8441.83, -8869.71, -8540.09, -159741.63, -152813.63, -154363.52, -153810.28, 0.00, 0.00, 0.00
15, -8321.24, -8440.69, -8868.50, -8538.79, -159740.17, -152812.05, -154361.67, -153808.06, 0.00, 0.00, 0.00
16, -8313.31, -8434.07, -8862.65, -8533.61, -159734.97, -152807.14, -154356.69, -153803.16, 0.00, 0.00, 0.00
17, -8311.70, -8432.78, -8861.50, -8532.58, -159734.03, -152806.69, -154356.38, -153803.28, 0.00, 0.00, 0.00
18, -8317.80, -8437.54, -8865.48, -8536.11, -159737.45, -152810.06, -154359.78, -153806.64, 0.00, 0.00, 0.00
19, -8319.97, -8439.33, -8867.00, -8537.45, -159738.55, -152810.89, -154360.38, -153806.84, 0.00, 0.00, 0.00
20, -8312.66, -8433.45, -8861.73, -8532.71, -159733.72, -152806.27, -154355.64, -153802.06, -0.45, -0.15, 0.83
21, -8310.09, -8431.41, -8860.01, -8531.33, -159732.42, -152805.30, -154354.95, -153801.83, 0.00, 0.00, 0.00
22, -8318.36, -8438.50, -8866.33, -8537.27, -159738.33, -152811.20, -154360.97, -153807.95, 0.00, 0.00, 0.00
23, -8325.00, -8444.33, -8871.79, -8542.43, -159743.27, -152815.94, -154365.52, -153811.94, 0.00, 0.00, 0.00
24, -8315.88, -8436.46, -8864.63, -8535.66, -159736.33, -152809.19, -154358.44, -153804.73, 0.00, 0.00, 0.00
25, -8308.43, -8429.89, -8858.53, -8529.96, -159730.83, -152804.16, -154353.55, -153800.27, 0.00, 0.00, 0.00
26, -8317.24, -8437.72, -8865.62, -8536.85, -159737.78, -152811.11, -154360.83, -153807.83, 0.00, 0.00, 0.00
27, -8323.16, -8442.68, -8869.93, -8540.69, -159741.31, -152814.42, -154364.00, -153810.63, 0.00, 0.00, 0.00
28, -8313.02, -8433.51, -8861.39, -8532.24, -159732.73, -152805.64, -154354.80, -153801.00, 0.00, 0.00, 0.00
29, -8304.03, -8425.85, -8854.17, -8525.71, -159726.09, -152799.58, -154348.88, -153795.33, 0.00, 0.00, 0.00
30, -8314.11, -8435.08, -8862.69, -8534.32, -159734.86, -152808.80, -154358.61, -153805.97, -0.50, -0.17, 0.86
31, -8324.42, -8444.24, -8871.09, -8542.10, -159742.53, -152816.17, -154365.86, -153813.13, 0.00, 0.00, 0.00
32, -8316.32, -8436.96, -8864.39, -8535.33, -159735.38, -152808.61, -154357.59, -153803.88, 0.00, 0.00, 0.00
33, -8306.62, -8428.53, -8856.74, -8528.33, -159728.31, -152801.84, -154350.77, -153797.03, 0.00, 0.00, 0.00
34, -8314.45, -8435.66, -8863.43, -8535.17, -159735.47, -152809.70, -154359.39, -153806.64, 0.00, 0.00, 0.00
35, -8325.11, -8444.91, -8871.81, -8543.10, -159743.38, -152817.48, -154367.42, -153814.80, 0.00, 0.00, 0.00
36, -8317.89, -8438.16, -8865.30, -8536.44, -159736.33, -152809.97, -154358.92, -153805.41, 0.00, 0.00, 0.00
37, -8304.61, -8426.36, -8854.44, -8525.96, -159725.81, -152799.45, -154348.11, -153794.13, 0.00, 0.00, 0.00
38, -8310.71, -8432.17, -8859.99, -8531.75, -159732.05, -152806.38, -154355.94, -153803.00, 0.00, 0.00, 0.00
39, -8324.50, -8444.47, -8871.23, -8542.66, -159743.06, -152817.63, -154367.58, -153815.17, 0.00, 0.00, 0.00
40, -8317.17, -8437.20, -8864.14, -8535.26, -159735.23, -152809.28, -154358.48, -153804.98, -0.53, -0.25, 0.84
41, -8300.68, -8422.36, -8850.26, -8521.69, -159721.47, -152795.33, -154343.97, -153789.66, 0.00, 0.00, 0.00
42, -8305.71, -8427.37, -8855.16, -8526.97, -159727.11, -152801.73, -154351.06, -153797.81, 0.00, 0.00, 0.00
43, -8323.21, -8443.19, -8869.98, -8541.56, -159742.02, -152817.16, -154367.11, -153814.98, 0.00, 0.00, 0.00
44, -8321.06, -8440.73, -8867.41, -8538.59, -159738.69, -152813.27, -154362.58, -153809.45, 0.00, 0.00, 0.00
45, -8304.75, -8426.05, -8853.82, -8525.09, -159724.84, -152798.95, -154347.38, -153793.09, 0.00, 0.00, 0.00
46, -8302.98, -8424.75, -8852.81, -8524.55, -159724.59, -152799.36, -154348.36, -153794.84, 0.00, 0.00, 0.00
47, -8316.66, -8436.82, -8863.94, -8535.66, -159735.86, -152811.14, -154360.89, -153808.30, 0.00, 0.00, 0.00
48, -8321.44, -8440.93, -8867.58, -8538.90, -159738.84, -152813.66, -154363.17, -153810.02, 0.00, 0.00, 0.00
49, -8309.22, -8430.03, -8857.50, -8528.91, -159728.83, -152803.45, -154352.36, -153798.45, 0.00, 0.00, 0.00
50, -8301.84, -8423.50, -8851.54, -8523.26, -159723.58, -152798.67, -154347.86, -153794.30, -0.52, -0.24, 0.81
51, -8312.14, -8432.84, -8860.05, -8531.71, -159732.02, -152807.41, -154357.00, -153804.06, 0.00, 0.00, 0.00
52, -8319.48, -8438.95, -8865.57, -8536.76, -159737.05, -152812.03, -154361.44, -153808.19, 0.00, 0.00, 0.00
53, -8312.55, -8432.84, -8860.16, -8531.50, -159731.58, -152806.52, -154355.70, -153802.11, 0.00, 0.00, 0.00
54, -8305.82, -8427.32, -8855.29, -8527.24, -159727.50, -152802.83, -154352.14, -153798.80, 0.00, 0.00, 0.00
55, -8313.84, -8434.63, -8862.06, -8533.85, -159734.20, -152809.86, -154359.27, -153806.33, 0.00, 0.00, 0.00
56, -8323.95, -8443.42, -8870.09, -8541.36, -159741.47, -152816.88, -154366.22, -153812.94, 0.00, 0.00, 0.00
57, -8319.36, -8439.39, -8866.49, -8537.79, -159737.92, -152813.22, -154362.30, -153808.73, 0.00, 0.00, 0.00
58, -8309.86, -8431.32, -8859.20, -8531.06, -159731.42, -152807.05, -154356.25, -153802.75, 0.00, 0.00, 0.00
59, -8313.66, -8434.72, -8862.44, -8534.10, -159734.61, -152810.47, -154359.94, -153806.70, -0.57, -0.28, 0.78
60, -8324.64, -8444.15, -8871.05, -8542.12, -159742.48, -152818.06, -154367.67, -153814.27, 0.00, 0.00, 0.00
61, -8321.80, -8441.52, -8868.55, -8539.53, -159739.83, -152815.31, -154364.66, -153810.94, 0.00, 0.00, 0.00
62, -8312.77, -8433.87, -8861.80, -8533.27, -159733.66, -152809.58, -154358.86, -153805.19, 0.00, 0.00, 0.00
63, -8312.99, -8434.07, -8862.04, -8533.69, -159734.08, -152810.31, -154359.83, -153806.45, 0.00, 0.00, 0.00
64, -8322.07, -8441.63, -8868.77, -8539.98, -159740.30, -152816.45, -154365.86, -153812.42, 0.00, 0.00, 0.00
65, -8323.59, -8442.86, -8870.09, -8540.94, -159741.25, -152817.13, -154366.34, -153812.72, 0.00, 0.00, 0.00
66, -8313.84, -8434.48, -8862.60, -8533.85, -159734.30, -152810.47, -154359.67, -153805.88, 0.00, 0.00, 0.00
67, -8312.21, -8433.29, -8861.48, -8533.00, -159733.66, -152810.06, -154359.52, -153806.13, 0.00, 0.00, 0.00
