%OpenBCI Raw EEG Data
%
%Sample Rate = 250.0 Hz
%First Column = SampleIndex
%Other Columns = EEG data in microvolts followed by Accel Data (in G) interleaved with Aux Data
0, -175809.11, -178024.31, -182333.14, -182247.11, -182344.83, -182375.61, -182360.14, -182346.58, 0.02, -0.02, 0.49
1, -175709.97, -177890.59, -182295.70, -182209.72, -182307.28, -182338.08, -182322.84, -182309.16, 0.00, 0.00, 0.00
2, -175894.36, -178127.61, -182355.88, -182269.84, -182367.47, -182398.25, -182382.83, -182369.19, 0.00, 0.00, 0.00
3, -176024.09, -178301.69, -182403.94, -182317.81, -182415.53, -182446.38, -182430.84, -182417.28, 0.00, 0.00, 0.00
4, -175863.39, -178097.38, -182354.42, -182268.34, -182366.00, -182396.91, -182381.47, -182367.86, 0.00, 0.00, 0.00
5, -175718.88, -177904.50, -182303.19, -182217.09, -182314.77, -182345.55, -182330.27, -182316.63, 0.00, 0.00, 0.00
6, -175867.59, -178092.56, -182349.44, -182263.25, -182360.98, -182391.75, -182376.34, -182362.77, 0.03, -0.04, 0.99
7, -176038.67, -178320.77, -182410.56, -182324.33, -182422.13, -182452.95, -182437.33, -182423.80, 0.00, 0.00, 0.00
8, -175915.73, -178168.47, -182375.78, -182289.67, -182387.38, -182418.19, -182402.67, -182389.09, 0.00, 0.00, 0.00
9, -175732.52, -177929.00, -182313.67, -182227.64, -182325.23, -182356.00, -182340.61, -182327.13, 0.00, 0.00, 0.00
10, -175835.28, -178057.16, -182345.72, -182259.69, -182357.44, -182388.08, -182372.66, -182359.14, 0.00, 0.00, 0.00
11, -176038.20, -178324.63, -182415.53, -182329.31, -182427.11, -182457.86, -182442.33, -182428.78, 0.00, 0.00, 0.00
12, -175966.73, -178238.28, -182395.50, -182309.25, -182406.95, -182437.77, -182422.30, -182408.72, 0.00, 0.00, 0.00
13, -175761.23, -177970.27, -182327.47, -182241.28, -182338.95, -182369.86, -182354.39, -182340.83, 0.00, 0.00, 0.00
14, -175812.20, -178030.55, -182340.97, -182254.75, -182352.66, -182383.36, -182368.02, -182354.31, 0.00, 0.00, 0.00
15, -176030.27, -178315.69, -182413.77, -182327.52, -182425.39, -182456.09, -182440.72, -182426.91, 0.00, 0.00, 0.00
16, -176009.00, -178296.89, -182415.02, -182328.81, -182426.66, -182457.42, -182441.95, -182428.38, 0.03, -0.03, 0.98
17, -175794.67, -178019.55, -182346.06, -182259.98, -182357.78, -182388.47, -182373.17, -182359.42, 0.00, 0.00, 0.00
18, -175790.55, -178009.78, -182339.73, -182253.72, -182351.42, -182382.19, -182366.84, -182353.13, 0.00, 0.00, 0.00
19, -176009.36, -178294.31, -182412.17, -182326.14, -182423.83, -182454.59, -182439.14, -182425.50, 0.00, 0.00, 0.00
20, -176047.05, -178349.30, -182431.58, -182345.45, -182443.14, -182473.98, -182458.53, -182444.91, 0.00, 0.00, 0.00
21, -175840.03, -178083.52, -182365.66, -182279.56, -182377.20, -182408.05, -182392.63, -182379.14, 0.00, 0.00, 0.00
22, -175781.84, -178001.84, -182340.08, -182254.06, -182351.66, -182382.45, -182367.08, -182353.59, 0.00, 0.00, 0.00
23, -175986.25, -178265.69, -182406.88, -182320.77, -182418.34, -182449.23, -182433.72, -182420.11, 0.00, 0.00, 0.00
24, -176075.64, -178389.92, -182444.00, -182357.86, -182455.45, -182486.34, -182470.73, -182457.19, 0.00, 0.00, 0.00
25, -175888.98, -178152.09, -182384.55, -182298.47, -182396.06, -182427.00, -182411.39, -182397.89, 0.00, 0.00, 0.00
26, -175778.22, -178003.28, -182345.23, -182259.19, -182356.72, -182387.72, -182372.14, -182358.64, 0.03, -0.03, 0.98
27, -175955.30, -178229.70, -182402.81, -182316.72, -182414.33, -182445.22, -182429.70, -182416.20, 0.00, 0.00, 0.00
28, -176096.92, -178418.91, -182452.77, -182366.58, -182464.23, -182495.03, -182479.55, -182466.05, 0.00, 0.00, 0.00
29, -175943.67, -178226.17, -182405.70, -182319.63, -182417.36, -182448.09, -182432.61, -182419.05, 0.00, 0.00, 0.00
30, -175788.06, -178019.91, -182352.97, -182266.98, -182364.66, -182395.38, -182380.03, -182366.47, 0.00, 0.00, 0.00
31, -175925.70, -178194.27, -182393.80, -182307.61, -182405.36, -182436.09, -182420.61, -182407.13, 0.00, 0.00, 0.00
32, -176104.66, -178433.05, -182458.09, -182371.83, -182469.63, -182500.47, -182484.78, -182471.30, 0.00, 0.00, 0.00
33, -175992.94, -178297.22, -182428.09, -182341.92, -182439.67, -182470.50, -182454.89, -182441.39, 0.00, 0.00, 0.00
34, -175802.59, -178048.00, -182364.34, -182278.38, -182375.97, -182406.80, -182391.38, -182377.88, 0.00, 0.00, 0.00
35, -175893.14, -178160.08, -182390.03, -182304.00, -182401.66, -182432.34, -182416.98, -182403.45, 0.00, 0.00, 0.00
36, -176103.98, -178434.73, -182463.81, -182377.59, -182475.25, -182506.03, -182490.56, -182476.97, 0.03, -0.03, 0.98
37, -176043.98, -178364.41, -182449.84, -182363.67, -182461.31, -182492.16, -182476.66, -182463.00, 0.00, 0.00, 0.00
38, -175834.89, -178092.22, -182381.83, -182295.75, -182393.33, -182424.19, -182408.75, -182395.23, 0.00, 0.00, 0.00
39, -175873.20, -178135.97, -182387.55, -182301.42, -182399.08, -182429.83, -182414.34, -182400.95, 0.00, 0.00, 0.00
40, -176091.75, -178421.56, -182461.63, -182375.36, -182473.13, -182503.84, -182488.39, -182474.88, 0.00, 0.00, 0.00
41, -176084.98, -178421.70, -182465.84, -182379.56, -182477.31, -182508.09, -182492.58, -182479.03, 0.00, 0.00, 0.00
42, -175871.13, -178145.94, -182397.06, -182310.95, -182408.58, -182439.33, -182423.91, -182410.33, 0.00, 0.00, 0.00
43, -175854.67, -178117.52, -182388.23, -182302.14, -182399.70, -182430.50, -182415.13, -182401.50, 0.00, 0.00, 0.00
44, -176072.55, -178399.64, -182458.92, -182372.81, -182470.45, -182501.19, -182485.80, -182472.13, 0.00, 0.00, 0.00
45, -176122.28, -178472.61, -182480.34, -182394.20, -182491.80, -182522.53, -182507.11, -182493.56, 0.00, 0.00, 0.00
46, -175919.22, -178211.17, -182417.50, -182331.31, -182428.89, -182459.66, -182444.25, -182430.73, 0.03, -0.02, 0.99
47, -175847.52, -178111.52, -182388.80, -182302.81, -182400.39, -182431.16, -182415.78, -182402.20, 0.00, 0.00, 0.00
48, -176044.36, -178367.27, -182453.08, -182367.11, -182464.70, -182495.50, -182479.95, -182466.47, 0.00, 0.00, 0.00
49, -176147.31, -178508.05, -182494.81, -182408.73, -182506.25, -182537.13, -182521.55, -182508.06, 0.00, 0.00, 0.00
50, -175968.70, -178279.94, -182438.17, -182351.98, -182449.59, -182480.33, -182464.97, -182451.50, 0.00, 0.00, 0.00
51, -175847.41, -178116.27, -182394.91, -182308.78, -182406.36, -182437.13, -182421.81, -182408.25, 0.00, 0.00, 0.00
52, -176016.83, -178332.77, -182445.39, -182359.25, -182456.88, -182487.56, -182472.28, -182458.67, 0.00, 0.00, 0.00
53, -176167.64, -178535.00, -182500.38, -182414.14, -182511.80, -182542.47, -182527.16, -182513.55, 0.00, 0.00, 0.00
54, -176023.58, -178354.42, -182459.66, -182373.42, -182471.05, -182501.67, -182486.39, -182472.86, 0.00, 0.00, 0.00
55, -175858.41, -178136.80, -182403.23, -182317.08, -182414.72, -182445.42, -182430.13, -182416.58, 0.00, 0.00, 0.00
56, -175984.47, -178295.86, -182440.03, -182353.86, -182451.42, -182482.30, -182466.88, -182453.28, 0.03, -0.02, 0.98
57, -176172.27, -178544.14, -182505.91, -182419.58, -182517.25, -182548.09, -182532.59, -182519.06, 0.00, 0.00, 0.00
58, -176072.98, -178422.48, -182479.77, -182393.48, -182491.23, -182522.06, -182506.61, -182493.11, 0.00, 0.00, 0.00
59, -175877.58, -178166.75, -182414.19, -182328.09, -182425.70, -182456.44, -182441.08, -182427.64, 0.00, 0.00, 0.00
60, -175957.94, -178264.95, -182436.08, -182349.80, -182447.53, -182478.23, -182462.78, -182449.33, 0.00, 0.00, 0.00
61, -176170.59, -178544.31, -182507.38, -182420.98, -182518.77, -182549.47, -182534.02, -182520.47, 0.00, 0.00, 0.00
62, -176122.67, -178490.09, -182498.83, -182412.63, -182510.30, -182541.13, -182525.77, -182512.14, 0.00, 0.00, 0.00
63, -175909.77, -178214.08, -182427.72, -182341.61, -182439.27, -182469.98, -182454.69, -182441.19, 0.00, 0.00, 0.00
64, -175933.50, -178239.52, -182432.20, -182346.17, -182443.73, -182474.52, -182459.20, -182445.70, 0.00, 0.00, 0.00
65, -176154.00, -178527.67, -182508.78, -182422.59, -182520.30, -182551.05, -182535.61, -182522.13, 0.00, 0.00, 0.00
66, -176161.78, -178545.38, -182516.67, -182430.47, -182528.19, -182558.89, -182543.42, -182529.88, 0.03, -0.02, 0.99
67, -175949.47, -178270.84, -182447.05, -182360.97, -182458.53, -182489.30, -182473.88, -182460.39, 0.00, 0.00, 0.00
68, -175919.67, -178225.98, -182431.89, -182345.81, -182443.31, -182474.09, -182458.73, -182445.19, 0.00, 0.00, 0.00
69, -176133.59, -178503.95, -182502.56, -182416.41, -182513.98, -182544.70, -182529.33, -182515.70, 0.00, 0.00, 0.00
70, -176197.44, -178594.25, -182528.97, -182442.84, -182540.41, -182571.14, -182555.70, -182542.13, 0.00, 0.00, 0.00
71, -175998.66, -178338.95, -182465.52, -182379.55, -182477.05, -182507.78, -182492.36, -182478.83, 0.00, 0.00, 0.00
72, -175912.20, -178221.78, -182433.48, -182347.58, -182445.03, -182475.80, -182460.53, -182446.89, 0.00, 0.00, 0.00
73, -176104.73, -178468.89, -182498.13, -182412.05, -182509.61, -182540.41, -182524.98, -182511.39, 0.00, 0.00, 0.00
74, -176220.92, -178625.69, -182540.44, -182454.20, -182551.86, -182582.67, -182567.19, -182553.59, 0.00, 0.00, 0.00
75, -176049.22, -178408.84, -182485.36, -182399.22, -182496.75, -182527.56, -182512.02, -182498.64, 0.00, 0.00, 0.00
76, -175916.92, -178232.33, -182438.95, -182352.88, -182450.33, -182481.11, -182465.70, -182452.30, 0.03, -0.02, 0.98
77, -176076.63, -178435.38, -182489.53, -182403.50, -182501.00, -182531.78, -182516.45, -182502.86, 0.00, 0.00, 0.00
78, -176236.59, -178649.91, -182546.83, -182460.69, -182558.33, -182589.14, -182573.64, -182560.08, 0.00, 0.00, 0.00
79, -176101.97, -178482.45, -182508.89, -182422.69, -182520.30, -182551.14, -182535.67, -182522.13, 0.00, 0.00, 0.00
80, -175927.64, -178252.94, -182450.63, -182364.50, -182462.05, -182492.88, -182477.47, -182463.97, 0.00, 0.00, 0.00
81, -176043.42, -178398.97, -182482.70, -182396.58, -182494.09, -182525.02, -182509.63, -182496.09, 0.00, 0.00, 0.00
82, -176237.89, -178657.20, -182551.78, -182465.53, -182563.16, -182594.03, -182578.56, -182564.97, 0.00, 0.00, 0.00
83, -176151.13, -178551.61, -182531.84, -182445.66, -182543.36, -182574.09, -182558.69, -182545.06, 0.00, 0.00, 0.00
84, -175952.33, -178290.30, -182464.25, -182378.19, -182475.77, -182506.53, -182491.28, -182477.73, 0.00, 0.00, 0.00
85, -176018.89, -178371.14, -182480.78, -182394.61, -182492.28, -182523.05, -182507.70, -182494.16, 0.00, 0.00, 0.00
86, -176234.47, -178653.38, -182554.48, -182468.27, -182565.88, -182596.69, -182581.25, -182567.64, 0.03, -0.03, 0.97
87, -176199.22, -178615.16, -182550.17, -182464.06, -182561.63, -182592.47, -182577.02, -182563.36, 0.00, 0.00, 0.00
88, -175984.33, -178336.92, -182479.88, -182393.78, -182491.23, -182522.19, -182506.69, -182493.09, 0.00, 0.00, 0.00
89, -175995.80, -178345.39, -182481.02, -182394.78, -182492.39, -182523.22, -182507.78, -182494.19, 0.00, 0.00, 0.00
90, -176217.03, -178633.30, -182553.23, -182466.88, -182564.58, -182595.34, -182579.80, -182566.27, 0.00, 0.00, 0.00
91, -176238.77, -178668.17, -182565.72, -182479.34, -182577.06, -182607.86, -182592.33, -182578.81, 0.00, 0.00, 0.00
92, -176030.55, -178397.45, -182497.53, -182411.28, -182508.95, -182539.72, -182524.39, -182510.89, 0.00, 0.00, 0.00
93, -175986.61, -178334.92, -182479.28, -182393.14, -182490.67, -182521.52, -182506.14, -182492.63, 0.00, 0.00, 0.00
94, -176196.53, -178606.97, -182546.06, -182459.91, -182557.44, -182588.36, -182572.86, -182559.23, 0.00, 0.00, 0.00
95, -176272.48, -178713.13, -182578.27, -182492.05, -182589.66, -182620.55, -182605.03, -182591.42, 0.04, -0.03, 0.98
96, -176077.31, -178464.13, -182517.91, -182431.78, -182529.33, -182560.08, -182544.75, -182531.11, 0.00, 0.00, 0.00
97, -175978.88, -178331.67, -182484.02, -182397.92, -182495.61, -182526.31, -182510.95, -182497.38, 0.00, 0.00, 0.00
98, -176164.53, -178570.34, -182542.88, -182456.56, -182554.33, -182585.06, -182569.63, -182556.02, 0.00, 0.00, 0.00
99, -176291.47, -178743.30, -182592.06, -182505.77, -182603.44, -182634.22, -182618.70, -182605.14, 0.00, 0.00, 0.00
100, -176129.42, -178537.64, -182543.09, -182456.92, -182554.56, -182585.31, -182569.88, -182556.30, 0.00, 0.00, 0.00
101, -175986.39, -178345.70, -182490.67, -182404.52, -182502.19, -182532.92, -182517.59, -182504.02, 0.00, 0.00, 0.00
102, -176136.25, -178536.50, -182538.00, -182451.70, -182549.42, -182580.16, -182564.77, -182551.23, 0.00, 0.00, 0.00
103, -176306.00, -178763.20, -182597.73, -182511.36, -182609.08, -182639.94, -182624.41, -182610.81, 0.00, 0.00, 0.00
104, -176180.94, -178609.20, -182560.89, -182474.52, -182572.27, -182603.11, -182587.59, -182574.05, 0.00, 0.00, 0.00
105, -175999.02, -178370.63, -182498.34, -182412.11, -182509.77, -182540.56, -182525.20, -182511.63, 0.04, -0.02, 0.98
106, -176104.22, -178500.98, -182530.80, -182444.59, -182542.25, -182573.09, -182557.64, -182544.05, 0.00, 0.00, 0.00
107, -176307.05, -178767.19, -182602.77, -182516.38, -182614.14, -182644.97, -182629.39, -182615.89, 0.00, 0.00, 0.00
108, -176233.42, -178678.92, -182582.55, -182496.16, -182593.98, -182624.75, -182609.23, -182595.70, 0.00, 0.00, 0.00
109, -176028.86, -178411.59, -182513.59, -182427.42, -182525.14, -182555.83, -182540.50, -182526.95, 0.00, 0.00, 0.00
110, -176082.03, -178474.67, -182527.20, -182440.94, -182538.67, -182569.41, -182554.02, -182540.48, 0.00, 0.00, 0.00
111, -176300.09, -178760.42, -182602.70, -182516.34, -182614.06, -182644.86, -182629.42, -182615.78, 0.00, 0.00, 0.00
112, -176276.89, -178739.39, -182600.98, -182514.53, -182612.22, -182643.16, -182627.63, -182614.02, 0.00, 0.00, 0.00
113, -176062.56, -178462.30, -182530.11, -182443.73, -182541.45, -182572.39, -182556.89, -182543.41, 0.00, 0.00, 0.00
114, -176060.92, -178454.16, -182525.70, -182439.42, -182537.02, -182567.88, -182552.41, -182538.91, 0.00, 0.00, 0.00
115, -176280.63, -178740.14, -182600.94, -182514.59, -182612.22, -182642.98, -182627.52, -182613.97, 0.04, -0.02, 0.98
116, -176316.17, -178793.72, -182616.52, -182530.13, -182627.83, -182658.66, -182643.19, -182629.59, 0.00, 0.00, 0.00
117, -176109.91, -178527.13, -182552.22, -182465.83, -182563.50, -182594.36, -182578.97, -182565.41, 0.00, 0.00, 0.00
118, -176052.77, -178447.14, -182528.67, -182442.27, -182539.97, -182570.81, -182555.44, -182541.86, 0.00, 0.00, 0.00
119, -176257.53, -178711.63, -182594.50, -182508.02, -182605.78, -182636.56, -182621.22, -182607.58, 0.00, 0.00, 0.00
120, -176344.55, -178833.86, -182631.66, -182545.27, -182642.95, -182673.77, -182658.38, -182644.69, 0.00, 0.00, 0.00
121, -176158.77, -178595.55, -182573.61, -182487.28, -182584.89, -182615.72, -182600.38, -182586.67, 0.00, 0.00, 0.00
122, -176050.02, -178449.13, -182532.41, -182446.27, -182543.83, -182574.61, -182559.20, -182545.66, 0.00, 0.00, 0.00
123, -176227.50, -178677.30, -182588.08, -182501.73, -182599.42, -182630.23, -182614.73, -182601.19, 0.00, 0.00, 0.00
124, -176365.97, -178864.48, -182639.66, -182553.28, -182650.98, -182681.83, -182666.31, -182652.75, 0.00, 0.00, 0.00
125, -176212.61, -178670.14, -182596.31, -182510.02, -182607.64, -182638.56, -182623.00, -182609.47, 0.03, -0.03, 0.99
126, -176058.78, -178465.73, -182543.41, -182457.11, -182554.80, -182585.61, -182570.20, -182556.69, 0.00, 0.00, 0.00
127, -176197.83, -178641.38, -182585.58, -182499.23, -182596.95, -182627.67, -182612.27, -182598.86, 0.00, 0.00, 0.00
128, -176375.64, -178878.28, -182647.59, -182561.22, -182658.84, -182689.58, -182674.14, -182660.63, 0.00, 0.00, 0.00
129, -176263.70, -178740.05, -182618.66, -182532.25, -182629.92, -182660.70, -182645.17, -182631.72, 0.00, 0.00, 0.00
130, -176075.39, -178492.59, -182555.72, -182469.44, -182567.02, -182597.89, -182582.44, -182568.94, 0.00, 0.00, 0.00
131, -176169.33, -178607.11, -182580.69, -182494.39, -182591.97, -182622.78, -182607.38, -182593.83, 0.00, 0.00, 0.00
132, -176377.55, -178880.94, -182650.77, -182564.33, -182661.94, -182692.67, -182677.22, -182663.67, 0.00, 0.00, 0.00
133, -176315.11, -178808.73, -182637.17, -182550.73, -182648.33, -182679.14, -182663.75, -182650.17, 0.00, 0.00, 0.00
134, -176106.61, -178536.50, -182567.13, -182480.86, -182578.30, -182609.25, -182593.78, -182580.27, 0.00, 0.00, 0.00
135, -176146.17, -178581.89, -182574.61, -182488.39, -182585.84, -182616.73, -182601.27, -182587.69, 0.03, -0.03, 0.99
136, -176363.86, -178868.72, -182649.20, -182562.94, -182660.34, -182691.23, -182675.77, -182662.16, 0.00, 0.00, 0.00
137, -176355.39, -178866.81, -182653.59, -182567.34, -182664.80, -182695.75, -182680.28, -182666.73, 0.00, 0.00, 0.00
138, -176143.11, -178590.47, -182584.70, -182498.64, -182596.06, -182626.95, -182611.53, -182598.06, 0.00, 0.00, 0.00
139, -176128.52, -178564.77, -182575.55, -182489.33, -182586.80, -182617.64, -182602.22, -182588.84, 0.00, 0.00, 0.00
140, -176346.08, -178846.84, -182646.33, -182560.03, -182657.58, -182688.36, -182672.89, -182659.48, 0.00, 0.00, 0.00
141, -176395.38, -178918.47, -182669.64, -182583.30, -182680.84, -182711.67, -182696.11, -182682.64, 0.00, 0.00, 0.00
142, -176192.53, -178657.39, -182605.00, -182518.80, -182616.41, -182647.16, -182631.72, -182618.13, 0.00, 0.00, 0.00
143, -176122.22, -178559.86, -182577.92, -182491.69, -182589.19, -182620.08, -182604.73, -182591.11, 0.00, 0.00, 0.00
144, -176319.45, -178815.77, -182642.89, -182556.50, -182654.25, -182685.06, -182669.52, -182655.95, 0.00, 0.00, 0.00
145, -176420.14, -178955.30, -182680.95, -182594.55, -182692.25, -182723.00, -182707.41, -182693.86, 0.03, -0.03, 0.98
146, -176240.34, -178725.91, -182625.50, -182539.14, -182636.77, -182667.48, -182652.06, -182638.48, 0.00, 0.00, 0.00
147, -176120.08, -178564.70, -182582.36, -182496.06, -182593.72, -182624.44, -182608.98, -182595.44, 0.00, 0.00, 0.00
148, -176290.70, -178782.28, -182636.61, -182550.28, -182647.86, -182678.56, -182663.14, -182649.64, 0.00, 0.00, 0.00
149, -176440.16, -178982.92, -182690.70, -182604.41, -182701.91, -182732.80, -182717.33, -182703.69, 0.00, 0.00, 0.00
150, -176296.34, -178801.44, -182649.83, -182563.61, -182661.09, -182692.02, -182676.52, -182662.97, 0.00, 0.00, 0.00
151, -176133.33, -178585.89, -182593.23, -182507.03, -182604.61, -182635.42, -182620.00, -182606.50, 0.00, 0.00, 0.00
152, -176260.06, -178747.25, -182631.45, -182545.22, -182642.84, -182673.61, -182658.22, -182644.66, 0.00, 0.00, 0.00
153, -176445.92, -178994.22, -182696.94, -182610.64, -182708.31, -182739.09, -182723.58, -182710.08, 0.00, 0.00, 0.00
154, -176345.67, -178871.11, -182670.34, -182584.05, -182681.72, -182712.47, -182696.94, -182683.45, 0.00, 0.00, 0.00
155, -176152.50, -178617.28, -182603.52, -182517.34, -182614.89, -182645.58, -182630.20, -182616.81, 0.03, -0.03, 0.98
156, -176234.47, -178717.09, -182626.83, -182540.59, -182638.17, -182668.91, -182653.47, -182640.03, 0.00, 0.00, 0.00
157, -176445.48, -178994.78, -182698.14, -182611.75, -182709.50, -182740.17, -182724.63, -182711.11, 0.00, 0.00, 0.00
158, -176396.03, -178938.09, -182688.98, -182602.72, -182700.34, -182731.06, -182715.56, -182701.98, 0.00, 0.00, 0.00
159, -176184.64, -178663.19, -182619.27, -182533.19, -182630.73, -182661.47, -182646.17, -182632.61, 0.00, 0.00, 0.00
160, -176210.39, -178690.81, -182624.00, -182537.91, -182635.36, -182666.23, -182650.83, -182637.30, 0.00, 0.00, 0.00
161, -176430.97, -178978.39, -182698.89, -182612.69, -182710.22, -182741.06, -182725.48, -182712.08, 0.00, 0.00, 0.00
162, -176436.64, -178993.80, -182707.38, -182621.05, -182718.67, -182749.52, -182733.91, -182720.45, 0.00, 0.00, 0.00
163, -176223.47, -178718.89, -182638.56, -182552.33, -182649.94, -182680.67, -182665.25, -182651.72, 0.00, 0.00, 0.00
164, -176195.86, -178676.20, -182623.80, -182537.66, -182635.19, -182665.92, -182650.48, -182637.02, 0.00, 0.00, 0.00
165, -176410.06, -178954.25, -182693.78, -182607.47, -182705.08, -182735.89, -182720.28, -182706.91, 0.03, -0.03, 0.98
166, -176472.20, -179041.95, -182720.47, -182634.13, -182731.83, -182762.58, -182746.94, -182733.58, 0.00, 0.00, 0.00
167, -176273.78, -178785.92, -182658.05, -182571.77, -182669.47, -182700.16, -182684.64, -182671.23, 0.00, 0.00, 0.00
168, -176189.08, -178671.14, -182624.91, -182538.55, -182636.08, -182666.88, -182651.47, -182638.05, 0.00, 0.00, 0.00
169, -176382.13, -178920.25, -182686.20, -182599.83, -182697.44, -182728.17, -182712.67, -182699.27, 0.00, 0.00, 0.00
170, -176496.72, -179076.11, -182730.69, -182644.38, -182742.02, -182772.75, -182757.11, -182743.81, 0.00, 0.00, 0.00
171, -176324.05, -178857.25, -182679.84, -182593.55, -182691.17, -182721.92, -182706.38, -182693.00, 0.00, 0.00, 0.00
172, -176193.47, -178682.28, -182631.41, -182545.06, -182642.77, -182673.45, -182658.00, -182644.61, 0.00, 0.00, 0.00
173, -176354.39, -178887.06, -182682.55, -182596.16, -182693.86, -182724.55, -182708.98, -182695.58, 0.00, 0.00, 0.00
174, -176514.30, -179100.88, -182740.81, -182654.34, -182751.98, -182782.77, -182767.28, -182753.75, 0.03, -0.02, 0.98
175, -176379.23, -178931.98, -182703.05, -182616.63, -182714.19, -182744.92, -182729.50, -182716.08, 0.00, 0.00, 0.00
176, -176205.41, -178704.22, -182643.08, -182556.80, -182654.27, -182685.03, -182669.58, -182656.22, 0.00, 0.00, 0.00
177, -176322.63, -178851.77, -182678.91, -182592.64, -182690.23, -182720.91, -182705.44, -182692.06, 0.00, 0.00, 0.00
178, -176516.50, -179109.34, -182746.09, -182659.77, -182757.44, -182788.06, -182772.53, -182759.17, 0.00, 0.00, 0.00
179, -176428.50, -179001.81, -182720.63, -182634.36, -182731.97, -182762.58, -182747.16, -182733.70, 0.00, 0.00, 0.00
180, -176230.84, -178741.13, -182654.52, -182568.30, -182665.73, -182696.42, -182681.05, -182667.70, 0.00, 0.00, 0.00
181, -176299.58, -178823.81, -182672.02, -182585.72, -182683.19, -182714.02, -182698.50, -182685.16, 0.00, 0.00, 0.00
182, -176514.22, -179105.91, -182746.19, -182659.77, -182757.33, -182788.14, -182772.69, -182759.13, 0.00, 0.00, 0.00
183, -176477.91, -179066.41, -182744.53, -182658.16, -182755.66, -182786.48, -182771.02, -182757.48, 0.00, 0.00, 0.00
184, -176263.70, -178788.06, -182672.73, -182586.41, -182683.91, -182714.70, -182699.23, -182685.83, 0.03, -0.03, 0.98
185, -176276.64, -178798.61, -182672.58, -182586.25, -182683.84, -182714.53, -182699.17, -182685.66, 0.00, 0.00, 0.00
186, -176496.91, -179086.13, -182747.13, -182660.70, -182758.25, -182788.92, -182773.53, -182760.00, 0.00, 0.00, 0.00
187, -176516.48, -179119.91, -182759.97, -182673.78, -182771.19, -182801.88, -182786.55, -182773.05, 0.00, 0.00, 0.00
188, -176307.42, -178849.72, -182692.05, -182605.83, -182703.23, -182734.09, -182718.70, -182705.23, 0.00, 0.00, 0.00
189, -176265.98, -178788.95, -182671.08, -182584.73, -182682.20, -182713.13, -182697.61, -182684.25, 0.00, 0.00, 0.00
190, -176476.63, -179061.39, -182740.30, -182653.91, -182751.48, -182782.28, -182766.75, -182753.38, 0.00, 0.00, 0.00
191, -176550.36, -179165.59, -182770.91, -182684.41, -182782.03, -182812.75, -182797.28, -182783.75, 0.00, 0.00, 0.00
192, -176355.61, -178915.81, -182710.48, -182624.19, -182721.70, -182752.42, -182737.00, -182723.52, 0.00, 0.00, 0.00
193, -176260.70, -178785.88, -182675.77, -182589.47, -182686.97, -182717.75, -182702.28, -182688.94, 0.00, 0.00, 0.00
194, -176446.00, -179025.64, -182734.98, -182648.69, -182746.19, -182777.00, -182761.52, -182748.06, 0.03, -0.03, 0.98
195, -176572.03, -179196.86, -182783.33, -182697.00, -182794.45, -182825.33, -182809.81, -182796.34, 0.00, 0.00, 0.00
196, -176409.55, -178989.81, -182733.48, -182647.14, -182744.64, -182775.53, -182760.02, -182746.56, 0.00, 0.00, 0.00
197, -176267.13, -178799.00, -182683.13, -182596.83, -182694.30, -182725.11, -182709.70, -182696.31, 0.00, 0.00, 0.00
198, -176418.27, -178991.31, -182729.45, -182643.11, -182740.61, -182771.38, -182755.95, -182742.58, 0.00, 0.00, 0.00
199, -176586.39, -179217.48, -182787.73, -182701.36, -182798.80, -182829.58, -182814.05, -182800.66, 0.00, 0.00, 0.00
200, -176460.58, -179061.55, -182753.38, -182667.08, -182764.44, -182795.22, -182779.84, -182766.41, 0.00, 0.00, 0.00
201, -176280.17, -178823.63, -182693.36, -182607.17, -182704.45, -182735.27, -182719.97, -182706.48, 0.00, 0.00, 0.00
202, -176386.22, -178956.42, -182724.92, -182638.72, -182736.03, -182766.86, -182751.45, -182738.00, 0.00, 0.00, 0.00
203, -176586.94, -179221.80, -182793.95, -182707.56, -182804.94, -182835.81, -182820.33, -182806.78, 0.00, 0.00, 0.00
204, -176511.92, -179132.00, -182774.81, -182688.52, -182785.91, -182816.72, -182801.28, -182787.78, 0.03, -0.02, 0.98
205, -176308.23, -178865.41, -182706.33, -182620.14, -182717.53, -182748.28, -182732.92, -182719.45, 0.00, 0.00, 0.00
206, -176363.22, -178930.67, -182719.83, -182633.58, -182730.84, -182761.69, -182746.31, -182732.91, 0.00, 0.00, 0.00
207, -176581.08, -179215.66, -182793.28, -182707.06, -182804.39, -182835.28, -182819.73, -182806.27, 0.00, 0.00, 0.00
208, -176556.83, -179193.19, -182791.38, -182705.20, -182802.50, -182833.44, -182817.92, -182804.39, 0.00, 0.00, 0.00
209, -176342.58, -178916.34, -182721.30, -182635.31, -182732.64, -182763.48, -182748.02, -182734.59, 0.00, 0.00, 0.00
210, -176342.72, -178910.95, -182717.80, -182631.63, -182729.03, -182759.80, -182744.33, -182730.98, 0.00, 0.00, 0.00
211, -176562.77, -179196.25, -182790.28, -182703.95, -182801.41, -182832.23, -182816.63, -182803.31, 0.00, 0.00, 0.00
212, -176595.34, -179247.03, -182808.75, -182722.48, -182819.84, -182850.63, -182835.14, -182821.84, 0.00, 0.00, 0.00
213, -176388.27, -178980.05, -182743.72, -182657.48, -182754.86, -182785.66, -182770.23, -182756.81, 0.00, 0.00, 0.00
214, -176333.47, -178902.44, -182721.77, -182635.47, -182732.86, -182763.70, -182748.22, -182734.95, 0.03, -0.03, 0.98
215, -176539.25, -179168.83, -182785.56, -182699.28, -182796.61, -182827.45, -182811.94, -182798.64, 0.00, 0.00, 0.00
216, -176624.80, -179288.28, -182820.86, -182734.58, -182831.92, -182862.72, -182847.25, -182833.91, 0.00, 0.00, 0.00
217, -176437.06, -179048.47, -182763.91, -182677.61, -182774.95, -182805.77, -182790.38, -182777.09, 0.00, 0.00, 0.00
218, -176330.02, -178904.14, -182724.70, -182638.42, -182735.72, -182766.56, -182751.23, -182737.84, 0.00, 0.00, 0.00
219, -176509.34, -179133.48, -182780.31, -182694.06, -182791.31, -182822.22, -182806.78, -182793.36, 0.00, 0.00, 0.00
220, -176646.95, -179318.73, -182832.25, -182745.95, -182843.23, -182874.14, -182858.70, -182845.28, 0.00, 0.00, 0.00
221, -176491.92, -179122.88, -182784.11, -182697.83, -182795.06, -182825.94, -182810.52, -182797.23, 0.00, 0.00, 0.00
222, -176339.55, -178920.83, -182731.52, -182645.27, -182742.48, -182773.25, -182757.94, -182744.55, 0.00, 0.00, 0.00
223, -176480.63, -179099.06, -182776.78, -182690.48, -182787.80, -182818.53, -182803.22, -182789.78, 0.00, 0.00, 0.00
224, -176656.38, -179334.39, -182840.55, -182754.31, -182851.66, -182882.41, -182866.98, -182853.56, 0.03, -0.03, 0.98
225, -176542.50, -179192.67, -182807.67, -182721.50, -182818.78, -182849.53, -182834.09, -182820.70, 0.00, 0.00, 0.00
226, -176355.84, -178946.19, -182742.14, -182656.02, -182753.25, -182784.05, -182768.67, -182755.33, 0.00, 0.00, 0.00
227, -176450.34, -179063.47, -182769.22, -182683.02, -182780.27, -182811.11, -182795.75, -182782.30, 0.00, 0.00, 0.00
228, -176657.31, -179336.67, -182841.44, -182755.14, -182852.55, -182883.33, -182867.92, -182854.55, 0.00, 0.00, 0.00
229, -176593.06, -179261.97, -182826.05, -182739.78, -182837.27, -182867.92, -182852.63, -182839.14, 0.00, 0.00, 0.00
230, -176385.55, -178990.94, -182757.73, -182671.61, -182768.89, -182799.59, -182784.33, -182770.92, 0.00, 0.00, 0.00
231, -176428.11, -179039.64, -182768.44, -182682.23, -182779.58, -182810.19, -182794.92, -182781.55, 0.00, 0.00, 0.00
232, -176647.00, -179326.77, -182842.36, -182755.95, -182853.41, -182884.11, -182868.75, -182855.34, 0.00, 0.00, 0.00
233, -176636.59, -179321.89, -182845.64, -182759.25, -182856.73, -182887.47, -182872.05, -182858.66, 0.00, 0.00, 0.00
234, -176423.13, -179045.27, -182778.17, -182691.91, -182789.34, -182820.00, -182804.56, -182791.31, 0.03, -0.03, 0.98
235, -176410.36, -179021.53, -182766.39, -182680.27, -182777.56, -182808.25, -182792.84, -182779.50, 0.00, 0.00, 0.00
236, -176629.41, -179305.48, -182838.58, -182752.27, -182849.67, -182880.42, -182864.89, -182851.39, 0.00, 0.00, 0.00
237, -176675.36, -179372.66, -182860.67, -182774.44, -182871.80, -182902.63, -182887.16, -182873.73, 0.00, 0.00, 0.00
238, -176472.06, -179111.27, -182794.89, -182708.83, -182806.00, -182836.91, -182821.50, -182808.19, 0.00, 0.00, 0.00
239, -176404.47, -179016.52, -182769.97, -182683.81, -182781.00, -182811.94, -182796.50, -182783.19, 0.00, 0.00, 0.00
240, -176603.08, -179273.19, -182834.33, -182748.03, -182845.41, -182876.27, -182860.78, -182847.39, 0.00, 0.00, 0.00
241, -176701.91, -179409.42, -182874.39, -182788.14, -182885.45, -182916.30, -182900.78, -182887.39, 0.00, 0.00, 0.00
242, -176521.48, -179178.86, -182819.25, -182732.97, -182830.30, -182861.14, -182845.75, -182832.28, 0.00, 0.00, 0.00
243, -176403.94, -179019.50, -182775.89, -182689.61, -182786.95, -182817.75, -182802.42, -182788.98, 0.00, 0.00, 0.00
244, -176576.58, -179238.61, -182829.44, -182743.19, -182840.58, -182871.38, -182855.95, -182842.61, 0.03, -0.02, 0.99
245, -176724.03, -179437.39, -182882.81, -182796.34, -182893.72, -182924.56, -182909.14, -182895.78, 0.00, 0.00, 0.00
246, -176576.98, -179253.55, -182842.00, -182755.61, -182853.00, -182883.78, -182868.42, -182855.06, 0.00, 0.00, 0.00
247, -176415.58, -179040.34, -182784.53, -182698.28, -182795.69, -182826.36, -182811.09, -182797.72, 0.00, 0.00, 0.00
248, -176544.84, -179204.53, -182822.09, -182735.78, -182833.17, -182863.91, -182848.50, -182835.16, 0.00, 0.00, 0.00
249, -176729.47, -179451.08, -182887.16, -182800.66, -182898.16, -182928.95, -182913.39, -182900.14, 0.00, 0.00, 0.00
250, -176626.78, -179324.69, -182859.34, -182772.91, -182870.41, -182901.19, -182885.63, -182872.41, 0.00, 0.00, 0.00
251, -176434.98, -179070.92, -182796.11, -182709.67, -182807.14, -182837.84, -182822.47, -182809.19, 0.00, 0.00, 0.00
252, -176518.69, -179173.28, -182818.39, -182731.92, -182829.42, -182860.08, -182844.80, -182831.42, 0.00, 0.00, 0.00
253, -176729.69, -179450.77, -182888.52, -182802.08, -182899.56, -182930.33, -182914.78, -182901.41, 0.00, 0.00, 0.00
254, -176678.06, -179392.28, -182877.03, -182790.69, -182888.03, -182918.89, -182903.36, -182889.95, 0.03, -0.03, 0.98
255, -176466.44, -179117.95, -182809.92, -182723.72, -182820.92, -182851.77, -182836.44, -182823.00, 0.00, 0.00, 0.00
0, -176494.67, -179147.38, -182814.31, -182728.05, -182825.33, -182856.16, -182840.70, -182827.36, 0.00, 0.00, 0.00
1, -176715.28, -179435.11, -182887.38, -182800.98, -182898.39, -182929.27, -182913.69, -182900.27, 0.00, 0.00, 0.00
2, -176718.88, -179447.70, -182895.13, -182808.72, -182906.13, -182936.97, -182921.50, -182908.09, 0.00, 0.00, 0.00
3, -176506.56, -179172.83, -182826.13, -182739.75, -182837.17, -182867.91, -182852.50, -182839.14, 0.00, 0.00, 0.00
4, -176482.08, -179133.67, -182811.88, -182725.53, -182823.00, -182853.67, -182838.38, -182824.98, 0.00, 0.00, 0.00
5, -176696.66, -179412.58, -182883.63, -182797.13, -182894.55, -182925.38, -182909.84, -182896.55, 0.00, 0.00, 0.00
6, -176755.16, -179497.52, -182909.86, -182823.38, -182920.75, -182951.66, -182936.17, -182922.78, 0.00, 0.00, 0.00
7, -176554.95, -179240.22, -182846.70, -182760.34, -182857.53, -182888.56, -182873.08, -182859.75, 0.03, -0.03, 0.98
8, -176472.42, -179127.98, -182816.98, -182730.69, -182827.97, -182858.88, -182843.39, -182830.14, 0.00, 0.00, 0.00
9, -176666.19, -179378.05, -182878.44, -182792.02, -182889.36, -182920.19, -182904.70, -182891.41, 0.00, 0.00, 0.00
10, -176778.23, -179531.16, -182920.70, -182834.27, -182931.61, -182962.50, -182947.02, -182933.63, 0.00, 0.00, 0.00
11, -176604.80, -179310.92, -182868.72, -182782.39, -182879.69, -182910.59, -182895.17, -182881.77, 0.00, 0.00, 0.00
12, -176476.92, -179138.59, -182825.78, -182739.47, -182836.84, -182867.64, -182852.22, -182838.84, 0.00, 0.00, 0.00
13, -176639.48, -179345.52, -182878.53, -182792.20, -182889.56, -182920.41, -182904.91, -182891.56, 0.00, 0.00, 0.00
14, -176797.52, -179557.17, -182932.58, -182846.22, -182943.61, -182974.44, -182958.86, -182945.48, 0.00, 0.00, 0.00
15, -176660.11, -179385.08, -182890.13, -182803.78, -182901.17, -182931.97, -182916.44, -182903.11, 0.00, 0.00, 0.00
16, -176488.50, -179158.80, -182831.94, -182745.55, -182842.88, -182873.73, -182858.20, -182845.00, 0.00, 0.00, 0.00
17, -176607.14, -179308.86, -182867.92, -182781.56, -182878.97, -182909.66, -182894.23, -182880.94, 0.03, -0.03, 0.97
18, -176799.56, -179564.77, -182936.92, -182850.58, -182947.88, -182978.73, -182963.27, -182949.84, 0.00, 0.00, 0.00
19, -176709.78, -179454.66, -182912.55, -182826.28, -182923.63, -182954.41, -182938.94, -182925.53, 0.00, 0.00, 0.00
20, -176513.33, -179195.19, -182846.05, -182759.84, -182857.14, -182887.94, -182872.48, -182859.19, 0.00, 0.00, 0.00
21, -176584.05, -179280.55, -182863.44, -182777.11, -182874.45, -182905.25, -182889.81, -182876.47, 0.00, 0.00, 0.00
22, -176798.53, -179562.08, -182937.42, -182850.97, -182948.48, -182979.17, -182963.64, -182950.36, 0.00, 0.00, 0.00
23, -176759.36, -179519.64, -182931.70, -182845.33, -182942.73, -182973.52, -182958.03, -182944.75, 0.00, 0.00, 0.00
24, -176545.73, -179241.73, -182861.45, -182775.13, -182872.44, -182903.22, -182887.80, -182874.50, 0.00, 0.00, 0.00
25, -176562.06, -179256.11, -182861.88, -182775.48, -182872.78, -182903.63, -182888.14, -182874.81, 0.00, 0.00, 0.00
26, -176782.80, -179543.73, -182935.64, -182849.27, -182946.58, -182977.47, -182961.97, -182948.55, 0.00, 0.00, 0.00
27, -176799.70, -179574.41, -182948.78, -182862.39, -182959.69, -182990.63, -182975.08, -182961.77, 0.03, -0.03, 0.98
28, -176590.00, -179303.08, -182879.16, -182792.84, -182890.14, -182921.00, -182905.53, -182892.27, 0.00, 0.00, 0.00
29, -176550.25, -179245.72, -182861.53, -182775.14, -182872.58, -182903.38, -182888.00, -182874.69, 0.00, 0.00, 0.00
30, -176761.05, -179518.39, -182931.08, -182844.61, -182942.11, -182972.95, -182957.42, -182944.11, 0.00, 0.00, 0.00
31, -176833.83, -179620.73, -182961.14, -182874.72, -182972.17, -183002.98, -182987.44, -182974.08, 0.00, 0.00, 0.00
32, -176638.05, -179370.22, -182900.23, -182813.95, -182911.27, -182942.05, -182926.64, -182913.38, 0.00, 0.00, 0.00
33, -176543.75, -179242.00, -182865.34, -182779.08, -182876.31, -182907.27, -182891.84, -182878.53, 0.00, 0.00, 0.00
34, -176731.66, -179483.52, -182924.64, -182838.31, -182935.55, -182966.56, -182950.97, -182937.72, 0.00, 0.00, 0.00
35, -176856.19, -179652.97, -182972.53, -182886.13, -182983.47, -183014.41, -182998.78, -182985.50, 0.00, 0.00, 0.00
36, -176692.36, -179444.02, -182922.05, -182835.63, -182933.05, -182963.89, -182948.28, -182935.09, 0.00, 0.00, 0.00
37, -176551.28, -179255.69, -182871.89, -182785.58, -182882.91, -182913.80, -182898.19, -182884.97, 0.02, -0.03, 0.98
38, -176703.61, -179449.23, -182921.16, -182834.80, -182932.22, -182962.98, -182947.48, -182934.19, 0.00, 0.00, 0.00
39, -176871.22, -179673.80, -182979.39, -182892.94, -182990.34, -183021.13, -183005.64, -182992.39, 0.00, 0.00, 0.00
40, -176743.70, -179516.06, -182941.69, -182855.28, -182952.55, -182983.48, -182968.00, -182954.70, 0.00, 0.00, 0.00
41, -176564.56, -179279.30, -182882.66, -182796.30, -182893.61, -182924.59, -182909.06, -182895.73, 0.00, 0.00, 0.00
42, -176672.97, -179413.80, -182913.84, -182827.52, -182924.86, -182955.73, -182940.14, -182926.92, 0.00, 0.00, 0.00
43, -176872.41, -179678.14, -182984.25, -182897.86, -182995.16, -183026.05, -183010.41, -182997.13, 0.00, 0.00, 0.00
44, -176796.56, -179586.30, -182965.19, -182878.81, -182976.17, -183007.05, -182991.47, -182978.19, 0.00, 0.00, 0.00
45, -176593.58, -179319.39, -182898.03, -182811.72, -182909.06, -182939.88, -182924.44, -182911.20, 0.00, 0.00, 0.00
46, -176649.92, -179386.84, -182913.17, -182826.80, -182924.09, -182954.94, -182939.55, -182926.27, 0.00, 0.00, 0.00
47, -176866.69, -179672.17, -182986.78, -182900.42, -182997.72, -183028.69, -183013.16, -182999.88, 0.02, -0.02, 0.98
48, -176840.06, -179647.14, -182984.97, -182898.66, -182995.94, -183026.84, -183011.23, -182998.06, 0.00, 0.00, 0.00
49, -176626.09, -179369.66, -182913.55, -182827.34, -182924.61, -182955.44, -182939.88, -182926.72, 0.00, 0.00, 0.00
50, -176628.28, -179365.84, -182909.27, -182823.03, -182920.25, -182951.17, -182935.59, -182922.33, 0.00, 0.00, 0.00
51, -176848.19, -179652.61, -182982.84, -182896.52, -182993.75, -183024.66, -183009.08, -182995.88, 0.00, 0.00, 0.00
52, -176881.34, -179702.70, -182997.61, -182911.22, -183008.56, -183039.48, -183023.88, -183010.53, 0.00, 0.00, 0.00
53, -176673.88, -179434.30, -182932.89, -182846.45, -182943.86, -182974.70, -182959.23, -182945.89, 0.00, 0.00, 0.00
54, -176620.39, -179358.19, -182910.48, -182824.13, -182921.44, -182952.31, -182936.97, -182923.55, 0.00, 0.00, 0.00
55, -176825.78, -179625.08, -182978.13, -182891.83, -182989.08, -183019.92, -183004.45, -182991.06, 0.00, 0.00, 0.00
56, -176910.30, -179744.14, -183013.94, -182927.67, -183024.95, -183055.80, -183040.27, -183026.97, 0.00, 0.00, 0.00
57, -176721.92, -179502.98, -182954.78, -182868.53, -182965.83, -182996.75, -182981.23, -182967.94, 0.02, -0.02, 0.98
58, -176615.25, -179359.72, -182918.09, -182831.91, -182929.16, -182960.11, -182944.55, -182931.20, 0.00, 0.00, 0.00
59, -176795.14, -179590.78, -182973.16, -182886.81, -182984.20, -183015.03, -182999.47, -182986.23, 0.00, 0.00, 0.00
60, -176932.05, -179774.98, -183020.50, -182933.98, -183031.36, -183062.25, -183046.66, -183033.33, 0.00, 0.00, 0.00
61, -176776.16, -179577.34, -182973.72, -182887.33, -182984.72, -183015.56, -183000.00, -182986.63, 0.00, 0.00, 0.00
62, -176625.42, -179375.45, -182920.88, -182834.53, -182931.88, -182962.77, -182947.23, -182933.98, 0.00, 0.00, 0.00
63, -176767.05, -179555.73, -182963.69, -182877.31, -182974.61, -183005.44, -182990.02, -182976.67, 0.00, 0.00, 0.00
64, -176941.98, -179790.52, -183026.34, -182939.98, -183037.44, -183068.20, -183052.64, -183039.25, 0.00, 0.00, 0.00
65, -176826.41, -179647.72, -182996.34, -182910.08, -183007.47, -183038.30, -183022.69, -183009.39, 0.00, 0.00, 0.00
66, -176640.00, -179401.78, -182933.42, -182847.13, -182944.42, -182975.42, -182959.86, -182946.55, 0.00, 0.00, 0.00
67, -176736.95, -179521.27, -182961.92, -182875.53, -182972.77, -183003.78, -182988.19, -182974.84, 0.03, -0.03, 0.98
68, -176944.36, -179793.89, -183033.27, -182946.78, -183044.13, -183074.97, -183059.39, -183046.05, 0.00, 0.00, 0.00
69, -176878.48, -179717.50, -183017.78, -182931.41, -183028.70, -183059.58, -183044.00, -183030.73, 0.00, 0.00, 0.00
70, -176670.13, -179446.09, -182947.50, -182861.27, -182958.52, -182989.39, -182973.91, -182960.67, 0.00, 0.00, 0.00
71, -176713.69, -179496.28, -182956.08, -182869.72, -182967.03, -182997.81, -182982.34, -182969.14, 0.00, 0.00, 0.00
72, -176932.30, -179783.05, -183030.98, -182944.59, -183041.94, -183072.72, -183057.20, -183043.81, 0.00, 0.00, 0.00
73, -176920.53, -179775.81, -183034.67, -182948.48, -183045.69, -183076.58, -183060.98, -183047.69, 0.00, 0.00, 0.00
74, -176706.66, -179498.52, -182964.75, -182878.56, -182975.75, -183006.72, -182991.20, -182977.83, 0.00, 0.00, 0.00
75, -176695.50, -179477.73, -182954.97, -182868.75, -182965.92, -182996.81, -182981.36, -182967.89, 0.00, 0.00, 0.00
76, -176915.22, -179763.31, -183026.89, -182940.58, -183037.88, -183068.69, -183053.25, -183039.75, 0.00, 0.00, 0.00
77, -176959.81, -179829.91, -183049.19, -182962.92, -183060.13, -183091.02, -183075.53, -183061.98, 0.03, -0.03, 0.98
78, -176755.94, -179566.13, -182983.69, -182897.55, -182994.64, -183025.55, -183010.11, -182996.67, 0.00, 0.00, 0.00
79, -176689.02, -179472.47, -182958.20, -182872.05, -182969.14, -183000.08, -182984.63, -182971.22, 0.00, 0.00, 0.00
80, -176888.84, -179731.95, -183023.13, -182936.89, -183034.11, -183064.95, -183049.36, -183036.02, 0.00, 0.00, 0.00
81, -176986.19, -179867.52, -183061.27, -182974.97, -183072.19, -183103.14, -183087.42, -183074.13, 0.00, 0.00, 0.00
82, -176804.42, -179635.31, -183005.81, -182919.45, -183016.66, -183047.64, -183032.03, -183018.69, 0.00, 0.00, 0.00
83, -176686.94, -179476.48, -182961.16, -182874.88, -182972.05, -183003.05, -182987.53, -182974.17, 0.00, 0.00, 0.00
84, -176859.88, -179697.92, -183016.72, -182930.38, -183027.56, -183058.59, -183043.06, -183029.63, 0.00, 0.00, 0.00
85, -177006.61, -179895.38, -183072.20, -182985.72, -183083.00, -183113.95, -183098.48, -183084.89, 0.00, 0.00, 0.00
86, -176859.83, -179709.78, -183026.56, -182940.13, -183037.27, -183068.20, -183052.80, -183039.30, 0.04, -0.03, 0.99
87, -176698.63, -179495.97, -182970.17, -182883.89, -182980.97, -183011.83, -182996.41, -182982.97, 0.00, 0.00, 0.00
88, -176829.09, -179661.13, -183008.64, -182922.30, -183019.50, -183050.34, -183034.86, -183021.52, 0.00, 0.00, 0.00
89, -177013.66, -179907.22, -183074.44, -182988.06, -183085.34, -183116.23, -183100.61, -183087.30, 0.00, 0.00, 0.00
90, -176911.02, -179780.58, -183045.97, -182959.69, -183056.91, -183087.80, -183072.22, -183058.91, 0.00, 0.00, 0.00
91, -176718.66, -179527.19, -182980.53, -182894.34, -182991.33, -183022.36, -183006.84, -182993.53, 0.00, 0.00, 0.00
92, -176803.39, -179630.56, -183006.00, -182919.77, -183016.66, -183047.80, -183032.22, -183018.89, 0.00, 0.00, 0.00
93, -177013.53, -179908.31, -183079.13, -182992.73, -183089.81, -183120.92, -183105.28, -183091.92, 0.00, 0.00, 0.00
94, -176961.34, -179848.75, -183068.20, -182981.88, -183079.02, -183110.02, -183094.44, -183081.05, 0.00, 0.00, 0.00
95, -176751.13, -179574.80, -182996.20, -182910.02, -183007.06, -183038.08, -183022.53, -183009.23, 0.00, 0.00, 0.00
96, -176780.03, -179606.39, -183002.59, -182916.30, -183013.42, -183044.42, -183028.89, -183015.61, 0.04, -0.03, 0.99
97, -176999.75, -179894.41, -183075.22, -182988.83, -183086.00, -183117.00, -183101.34, -183087.98, 0.00, 0.00, 0.00
98, -177001.72, -179905.39, -183082.73, -182996.44, -183093.53, -183124.50, -183108.97, -183095.53, 0.00, 0.00, 0.00
99, -176789.16, -179630.09, -183013.66, -182927.45, -183024.42, -183055.39, -183039.92, -183026.61, 0.00, 0.00, 0.00
100, -176765.25, -179591.98, -183001.81, -182915.77, -183012.66, -183043.66, -183028.17, -183014.88, 0.00, 0.00, 0.00
101, -176980.75, -179871.44, -183071.36, -182985.09, -183082.16, -183113.08, -183097.53, -183084.19, 0.00, 0.00, 0.00
102, -177038.91, -179954.45, -183095.38, -183009.03, -183106.17, -183137.09, -183121.53, -183108.19, 0.00, 0.00, 0.00
103, -176838.50, -179696.11, -183032.14, -182946.03, -183042.94, -183073.98, -183058.44, -183045.11, 0.00, 0.00, 0.00
104, -176757.80, -179585.44, -183001.02, -182914.91, -183011.83, -183042.81, -183027.30, -183014.02, 0.00, 0.00, 0.00
105, -176953.17, -179837.70, -183064.25, -182978.06, -183075.16, -183106.06, -183090.55, -183077.19, 0.00, 0.00, 0.00
106, -177063.86, -179990.19, -183106.92, -183020.53, -183117.70, -183148.58, -183133.00, -183119.66, 0.03, -0.03, 0.98
107, -176889.84, -179767.91, -183051.66, -182965.42, -183062.50, -183093.34, -183077.88, -183064.48, 0.00, 0.00, 0.00
108, -176761.56, -179594.83, -183007.16, -182920.91, -183017.98, -183048.84, -183033.42, -183019.94, 0.00, 0.00, 0.00
109, -176924.48, -179803.34, -183059.11, -182972.83, -183069.92, -183100.81, -183085.19, -183071.84, 0.00, 0.00, 0.00
110, -177081.11, -180015.22, -183116.59, -183030.25, -183127.44, -183158.33, -183142.63, -183129.33, 0.00, 0.00, 0.00
111, -176943.75, -179842.48, -183076.69, -182990.33, -183087.52, -183118.41, -183102.78, -183089.44, 0.00, 0.00, 0.00
112, -176773.14, -179616.31, -183019.86, -182933.63, -183030.69, -183061.63, -183046.13, -183032.81, 0.00, 0.00, 0.00
113, -176893.13, -179767.67, -183055.55, -182969.30, -183066.34, -183097.27, -183081.72, -183068.47, 0.00, 0.00, 0.00
114, -177084.81, -180023.42, -183122.25, -183035.97, -183133.11, -183164.00, -183148.42, -183135.08, 0.00, 0.00, 0.00
115, -176994.11, -179911.73, -183099.53, -183013.22, -183110.27, -183141.19, -183125.67, -183112.33, 0.00, 0.00, 0.00
116, -176798.27, -179652.66, -183031.36, -182945.13, -183041.98, -183073.08, -183057.56, -183044.33, 0.03, -0.03, 0.98
117, -176869.39, -179739.69, -183048.91, -182962.59, -183059.58, -183090.70, -183075.06, -183061.81, 0.00, 0.00, 0.00
118, -177083.72, -180022.19, -183122.67, -183036.39, -183133.41, -183164.41, -183148.73, -183135.45, 0.00, 0.00, 0.00
119, -177043.83, -179977.94, -183116.58, -183030.22, -183127.20, -183158.22, -183142.52, -183129.27, 0.00, 0.00, 0.00
120, -176830.44, -179699.66, -183046.50, -182960.31, -183057.25, -183088.20, -183072.61, -183059.34, 0.00, 0.00, 0.00
121, -176846.48, -179714.52, -183048.69, -182962.48, -183059.50, -183090.36, -183074.89, -183061.55, 0.00, 0.00, 0.00
122, -177066.52, -180003.27, -183121.78, -183035.59, -183132.66, -183163.52, -183148.00, -183134.61, 0.00, 0.00, 0.00
123, -177082.30, -180032.16, -183131.77, -183045.52, -183142.72, -183173.55, -183158.03, -183144.72, 0.00, 0.00, 0.00
124, -176872.70, -179759.89, -183065.63, -182979.31, -183076.41, -183107.31, -183091.94, -183078.55, 0.00, 0.00, 0.00
125, -176834.77, -179703.48, -183049.00, -182962.64, -183059.70, -183090.70, -183075.28, -183061.86, 0.00, 0.00, 0.00
126, -177045.34, -179977.33, -183117.91, -183031.50, -183128.64, -183159.58, -183144.02, -183130.61, 0.03, -0.04, 0.99
127, -177116.69, -180078.19, -183147.84, -183061.50, -183158.59, -183189.55, -183173.97, -183160.61, 0.00, 0.00, 0.00
128, -176921.22, -179827.63, -183083.95, -182997.72, -183094.70, -183125.75, -183110.27, -183096.88, 0.00, 0.00, 0.00
129, -176828.58, -179702.00, -183050.75, -182964.58, -183061.50, -183092.50, -183077.13, -183063.66, 0.00, 0.00, 0.00
130, -177016.69, -179944.36, -183109.81, -183023.50, -183120.50, -183151.48, -183136.00, -183122.61, 0.00, 0.00, 0.00
131, -177139.41, -180111.11, -183154.34, -183068.05, -183165.14, -183195.98, -183180.50, -183167.13, 0.00, 0.00, 0.00
132, -176973.97, -179900.89, -183104.97, -183018.78, -183115.70, -183146.72, -183131.19, -183117.89, 0.00, 0.00, 0.00
133, -176835.16, -179714.19, -183055.69, -182969.61, -183066.48, -183097.42, -183081.97, -183068.67, 0.00, 0.00, 0.00
134, -176988.23, -179909.31, -183103.66, -183017.42, -183114.33, -183145.30, -183129.92, -183116.50, 0.00, 0.00, 0.00
135, -177154.94, -180132.17, -183163.52, -183077.13, -183174.28, -183205.22, -183189.66, -183176.30, 0.00, 0.00, 0.00
136, -177026.28, -179971.97, -183126.88, -183040.53, -183137.69, -183168.66, -183153.05, -183139.70, 0.03, -0.03, 0.99
137, -176847.06, -179736.00, -183066.03, -182979.80, -183076.83, -183107.83, -183092.34, -183078.95, 0.00, 0.00, 0.00
138, -176956.28, -179873.00, -183098.38, -183011.98, -183109.11, -183140.13, -183124.59, -183111.19, 0.00, 0.00, 0.00
139, -177155.83, -180139.11, -183168.45, -183082.06, -183179.20, -183210.17, -183194.53, -183181.14, 0.00, 0.00, 0.00
140, -177078.56, -180044.38, -183146.25, -183059.97, -183157.03, -183187.98, -183172.41, -183159.11, 0.00, 0.00, 0.00
141, -176875.53, -179777.38, -183076.77, -182990.44, -183087.36, -183118.38, -183102.94, -183089.66, 0.00, 0.00, 0.00
142, -176933.36, -179847.30, -183092.05, -183005.69, -183102.64, -183133.69, -183118.16, -183104.86, 0.00, 0.00, 0.00
143, -177150.69, -180133.53, -183167.80, -183081.39, -183178.44, -183209.42, -183193.80, -183180.50, 0.00, 0.00, 0.00
144, -177123.53, -180106.28, -183166.58, -183080.16, -183177.17, -183208.22, -183192.56, -183179.31, 0.00, 0.00, 0.00
145, -176909.38, -179827.31, -183096.20, -183009.84, -183106.80, -183137.88, -183122.22, -183108.97, 0.00, 0.00, 0.00
146, -176913.31, -179824.77, -183094.05, -183007.73, -183104.59, -183135.69, -183120.02, -183106.80, 0.03, -0.03, 0.98
147, -177133.75, -180111.83, -183167.23, -183080.83, -183177.84, -183208.81, -183193.27, -183179.95, 0.00, 0.00, 0.00
148, -177164.50, -180160.95, -183180.34, -183093.91, -183190.89, -183222.03, -183206.36, -183193.13, 0.00, 0.00, 0.00
149, -176957.14, -179891.06, -183111.86, -183025.48, -183122.38, -183153.55, -183137.94, -183124.75, 0.00, 0.00, 0.00
150, -176905.77, -179816.67, -183092.66, -183006.27, -183103.25, -183134.34, -183118.83, -183105.55, 0.00, 0.00, 0.00
151, -177111.55, -180085.20, -183163.98, -183077.56, -183174.70, -183205.70, -183190.20, -183176.86, 0.00, 0.00, 0.00
152, -177193.63, -180202.73, -183196.88, -183110.45, -183207.61, -183238.61, -183222.98, -183209.59, 0.00, 0.00, 0.00
153, -177004.13, -179959.77, -183135.69, -183049.41, -183146.41, -183177.45, -183161.91, -183148.59, 0.00, 0.00, 0.00
154, -176900.03, -179818.17, -183098.11, -183011.81, -183108.75, -183139.77, -183124.30, -183111.00, 0.00, 0.00, 0.00
155, -177080.27, -180050.05, -183157.36, -183071.11, -183168.06, -183199.05, -183183.47, -183170.13, 0.00, 0.00, 0.00
156, -177215.84, -180233.98, -183207.14, -183120.84, -183217.78, -183248.83, -183233.20, -183219.88, 0.03, -0.02, 0.98
157, -177058.75, -180033.84, -183159.06, -183072.81, -183169.72, -183200.75, -183185.09, -183171.98, 0.00, 0.00, 0.00
158, -176909.06, -179832.89, -183106.16, -183019.75, -183116.75, -183147.78, -183132.27, -183119.05, 0.00, 0.00, 0.00
159, -177052.56, -180015.02, -183151.02, -183064.45, -183161.50, -183192.64, -183176.94, -183163.80, 0.00, 0.00, 0.00
160, -177226.39, -180248.89, -183213.08, -183126.47, -183223.56, -183254.73, -183238.97, -183225.78, 0.00, 0.00, 0.00
161, -177110.67, -180104.86, -183178.16, -183091.67, -183188.72, -183219.80, -183204.14, -183190.89, 0.00, 0.00, 0.00
162, -176925.08, -179860.13, -183115.61, -183029.25, -183126.20, -183157.23, -183141.72, -183128.42, 0.00, 0.00, 0.00
163, -177023.03, -179981.02, -183144.36, -183058.08, -183154.97, -183186.06, -183170.48, -183157.23, 0.00, 0.00, 0.00
164, -177228.70, -180253.61, -183215.00, -183128.55, -183225.61, -183256.67, -183241.03, -183227.84, 0.00, 0.00, 0.00
165, -177162.41, -180174.77, -183197.78, -183111.34, -183208.34, -183239.39, -183223.72, -183210.58, 0.04, -0.03, 0.98
166, -176955.63, -179902.80, -183129.67, -183043.45, -183140.33, -183171.36, -183155.75, -183142.50, 0.00, 0.00, 0.00
167, -176999.72, -179954.94, -183139.22, -183052.98, -183149.78, -183180.83, -183165.25, -183152.00, 0.00, 0.00, 0.00
168, -177216.72, -180242.16, -183214.53, -183128.16, -183225.00, -183256.02, -183240.44, -183227.23, 0.00, 0.00, 0.00
169, -177203.80, -180233.53, -183215.19, -183128.84, -183225.63, -183256.73, -183241.09, -183227.92, 0.00, 0.00, 0.00
170, -176990.20, -179954.61, -183146.08, -183059.81, -183156.64, -183187.67, -183172.19, -183158.92, 0.00, 0.00, 0.00
171, -176981.16, -179934.91, -183139.50, -183053.11, -183150.05, -183181.13, -183165.55, -183152.33, 0.00, 0.00, 0.00
172, -177201.36, -180221.03, -183211.28, -183124.75, -183221.72, -183252.80, -183237.11, -183223.97, 0.00, 0.00, 0.00
173, -177244.98, -180286.13, -183230.86, -183144.31, -183241.31, -183272.39, -183256.77, -183243.44, 0.00, 0.00, 0.00
174, -177039.56, -180020.97, -183165.67, -183079.25, -183176.16, -183207.25, -183191.69, -183178.44, 0.00, 0.00, 0.00
175, -176974.31, -179930.06, -183140.39, -183054.02, -183151.02, -183182.06, -183166.38, -183153.19, 0.04, -0.03, 0.98
176, -177174.06, -180190.50, -183205.64, -183119.25, -183216.28, -183247.22, -183231.61, -183218.27, 0.00, 0.00, 0.00
177, -177270.97, -180325.31, -183244.94, -183158.56, -183255.48, -183286.47, -183270.91, -183257.52, 0.00, 0.00, 0.00
178, -177089.42, -180091.27, -183188.52, -183102.16, -183198.95, -183229.98, -183214.45, -183201.17, 0.00, 0.00, 0.00
179, -176973.97, -179934.17, -183144.94, -183058.61, -183155.42, -183186.48, -183170.95, -183157.70, 0.00, 0.00, 0.00
180, -177147.56, -180157.52, -183198.64, -183112.33, -183209.22, -183240.22, -183224.70, -183211.36, 0.00, 0.00, 0.00
181, -177293.38, -180355.13, -183253.16, -183166.69, -183263.59, -183294.67, -183279.05, -183265.75, 0.00, 0.00, 0.00
182, -177145.64, -180168.00, -183207.97, -183121.56, -183218.45, -183249.55, -183233.97, -183220.64, 0.00, 0.00, 0.00
183, -176985.84, -179954.58, -183154.14, -183067.84, -183164.81, -183195.73, -183180.27, -183166.95, 0.00, 0.00, 0.00
184, -177117.41, -180121.33, -183195.52, -183109.19, -183206.17, -183237.16, -183221.64, -183208.34, 0.00, 0.00, 0.00
185, -177300.58, -180367.48, -183257.47, -183171.11, -183268.14, -183299.16, -183283.52, -183270.27, 0.04, -0.03, 0.98
186, -177196.28, -180238.77, -183228.17, -183141.72, -183238.70, -183269.80, -183254.14, -183240.84, 0.00, 0.00, 0.00
187, -177004.73, -179984.83, -183163.02, -183076.63, -183173.56, -183204.70, -183189.17, -183175.88, 0.00, 0.00, 0.00
188, -177091.33, -180091.39, -183187.38, -183101.03, -183197.95, -183229.11, -183213.48, -183200.25, 0.00, 0.00, 0.00
189, -177301.08, -180369.92, -183259.31, -183172.88, -183269.80, -183301.05, -183285.22, -183272.00, 0.00, 0.00, 0.00
190, -177247.31, -180307.47, -183250.17, -183163.58, -183260.63, -183291.77, -183276.09, -183262.75, 0.00, 0.00, 0.00
191, -177037.23, -180031.41, -183180.58, -183094.13, -183191.14, -183222.20, -183206.67, -183193.30, 0.00, 0.00, 0.00
192, -177066.77, -180064.66, -183186.16, -183099.72, -183196.64, -183227.77, -183212.14, -183198.84, 0.00, 0.00, 0.00
193, -177286.30, -180353.81, -183258.91, -183172.45, -183269.44, -183300.53, -183284.86, -183271.48, 0.00, 0.00, 0.00
194, -177286.91, -180363.84, -183265.66, -183179.27, -183276.14, -183307.25, -183291.66, -183278.23, 0.00, 0.00, 0.00
195, -177074.06, -180087.70, -183196.08, -183109.75, -183206.63, -183237.63, -183222.11, -183208.84, 0.03, -0.03, 0.98
196, -177051.45, -180051.14, -183183.89, -183097.42, -183194.42, -183225.45, -183209.91, -183196.59, 0.00, 0.00, 0.00
197, -177267.14, -180332.23, -183253.81, -183167.31, -183264.36, -183295.36, -183279.81, -183266.44, 0.00, 0.00, 0.00
198, -177324.11, -180414.67, -183278.86, -183192.36, -183289.42, -183320.44, -183304.77, -183291.42, 0.00, 0.00, 0.00
199, -177123.28, -180154.89, -183215.25, -183128.86, -183225.73, -183256.84, -183241.14, -183227.95, 0.00, 0.00, 0.00
200, -177043.53, -180044.59, -183185.30, -183098.83, -183195.70, -183226.83, -183211.19, -183198.00, 0.00, 0.00, 0.00
201, -177239.14, -180298.66, -183248.45, -183161.97, -183258.86, -183289.97, -183274.27, -183261.03, 0.00, 0.00, 0.00
202, -177348.81, -180449.92, -183290.48, -183203.98, -183300.89, -183332.00, -183316.31, -183303.03, 0.00, 0.00, 0.00
203, -177174.31, -180226.38, -183236.89, -183150.45, -183247.33, -183278.42, -183262.86, -183249.56, 0.00, 0.00, 0.00
204, -177046.98, -180054.16, -183192.64, -183106.22, -183203.09, -183234.16, -183218.63, -183205.27, 0.00, 0.00, 0.00
205, -177211.22, -180264.33, -183244.69, -183158.30, -183255.20, -183286.25, -183270.53, -183257.34, 0.02, -0.03, 0.99
206, -177367.33, -180475.47, -183300.19, -183213.75, -183310.66, -183341.67, -183325.92, -183312.81, 0.00, 0.00, 0.00
207, -177229.86, -180301.61, -183260.52, -183174.08, -183270.95, -183301.98, -183286.44, -183273.09, 0.00, 0.00, 0.00
208, -177059.94, -180074.97, -183201.02, -183114.63, -183211.45, -183242.45, -183226.97, -183213.72, 0.00, 0.00, 0.00
209, -177181.20, -180228.30, -183238.81, -183152.27, -183249.30, -183280.25, -183264.66, -183251.48, 0.00, 0.00, 0.00
210, -177372.64, -180484.00, -183305.98, -183219.45, -183316.39, -183347.39, -183331.77, -183318.50, 0.00, 0.00, 0.00
211, -177280.64, -180370.77, -183280.03, -183193.69, -183290.53, -183321.56, -183305.89, -183292.70, 0.00, 0.00, 0.00
212, -177083.95, -180110.38, -183214.58, -183128.22, -183225.06, -183256.16, -183240.42, -183227.33, 0.00, 0.00, 0.00
213, -177157.16, -180198.44, -183232.00, -183145.53, -183242.48, -183273.45, -183257.83, -183244.67, 0.00, 0.00, 0.00
214, -177371.30, -180481.75, -183304.44, -183217.95, -183314.97, -183345.97, -183330.20, -183317.06, 0.00, 0.00, 0.00
215, -177329.48, -180436.50, -183297.58, -183211.14, -183308.08, -183339.00, -183323.48, -183310.19, 0.04, -0.02, 0.97
216, -177115.86, -180157.83, -183229.63, -183143.38, -183240.22, -183271.13, -183255.59, -183242.41, 0.00, 0.00, 0.00
217, -177134.19, -180174.91, -183230.86, -183144.53, -183241.41, -183272.39, -183256.73, -183243.55, 0.00, 0.00, 0.00
218, -177354.27, -180465.83, -183302.78, -183216.42, -183313.33, -183344.31, -183328.48, -183315.34, 0.00, 0.00, 0.00
219, -177368.55, -180494.22, -183315.28, -183229.05, -183325.94, -183356.86, -183341.09, -183327.97, 0.00, 0.00, 0.00
220, -177159.19, -180220.80, -183247.27, -183161.08, -183258.02, -183289.03, -183273.30, -183260.20, 0.00, 0.00, 0.00
221, -177121.97, -180164.75, -183230.05, -183143.69, -183240.78, -183271.77, -183256.06, -183242.88, 0.00, 0.00, 0.00
222, -177333.55, -180440.44, -183297.75, -183211.36, -183308.38, -183339.38, -183323.64, -183310.45, 0.00, 0.00, 0.00
223, -177403.42, -180539.86, -183327.50, -183241.14, -183338.09, -183369.14, -183353.36, -183340.11, 0.00, 0.00, 0.00
224, -177207.58, -180286.91, -183267.06, -183180.78, -183277.66, -183308.73, -183293.02, -183279.78, 0.00, 0.00, 0.00
225, -177116.52, -180161.52, -183231.97, -183145.73, -183242.55, -183273.53, -183257.98, -183244.83, 0.04, -0.03, 0.97
226, -177305.55, -180406.42, -183294.11, -183207.72, -183304.61, -183335.64, -183320.00, -183306.81, 0.00, 0.00, 0.00
227, -177426.58, -180573.23, -183340.78, -183254.34, -183351.23, -183382.28, -183366.58, -183353.44, 0.00, 0.00, 0.00
228, -177261.39, -180361.27, -183288.67, -183202.25, -183299.19, -183330.14, -183314.52, -183301.44, 0.00, 0.00, 0.00
229, -177123.52, -180174.23, -183237.77, -183151.38, -183248.27, -183279.30, -183263.67, -183250.56, 0.00, 0.00, 0.00
230, -177277.42, -180371.78, -183287.14, -183200.80, -183297.64, -183328.73, -183313.05, -183299.86, 0.00, 0.00, 0.00
231, -177442.73, -180595.52, -183347.59, -183261.09, -183358.08, -183389.16, -183373.44, -183360.19, 0.00, 0.00, 0.00
232, -177313.56, -180433.78, -183308.44, -183222.08, -183318.98, -183350.08, -183334.39, -183321.16, 0.00, 0.00, 0.00
233, -177136.42, -180197.56, -183247.13, -183160.94, -183257.67, -183288.81, -183273.13, -183260.09, 0.00, 0.00, 0.00
234, -177246.38, -180336.19, -183279.83, -183193.58, -183290.42, -183321.48, -183305.84, -183292.70, 0.00, 0.00, 0.00
235, -177444.59, -180602.02, -183349.19, -183262.75, -183359.83, -183390.78, -183375.06, -183361.86, 0.03, -0.02, 0.98
236, -177365.31, -180505.33, -183328.38, -183241.88, -183338.88, -183369.80, -183354.23, -183340.92, 0.00, 0.00, 0.00
237, -177162.95, -180238.52, -183261.55, -183175.13, -183272.03, -183303.09, -183287.56, -183274.17, 0.00, 0.00, 0.00
238, -177222.42, -180309.75, -183275.14, -183188.78, -183285.61, -183316.75, -183301.20, -183287.81, 0.00, 0.00, 0.00
239, -177439.34, -180597.42, -183349.81, -183263.36, -183360.30, -183391.41, -183375.66, -183362.39, 0.00, 0.00, 0.00
240, -177410.63, -180568.92, -183346.56, -183260.19, -183357.08, -183388.17, -183372.41, -183359.20, 0.00, 0.00, 0.00
241, -177197.78, -180288.67, -183280.00, -183193.75, -183290.58, -183321.67, -183306.05, -183292.75, 0.00, 0.00, 0.00
242, -177202.70, -180287.27, -183278.75, -183192.45, -183289.27, -183320.33, -183304.70, -183291.42, 0.00, 0.00, 0.00
243, -177423.06, -180577.23, -183347.83, -183261.41, -183358.30, -183389.39, -183373.70, -183360.45, 0.00, 0.00, 0.00
244, -177452.55, -180624.58, -183364.41, -183277.86, -183374.84, -183405.95, -183390.22, -183376.92, 0.04, -0.03, 0.98
245, -177244.75, -180354.23, -183297.75, -183211.28, -183308.22, -183339.27, -183323.72, -183310.42, 0.00, 0.00, 0.00
246, -177193.98, -180281.20, -183277.75, -183191.41, -183288.30, -183319.25, -183303.83, -183290.58, 0.00, 0.00, 0.00
247, -177400.38, -180550.86, -183344.36, -183257.97, -183354.81, -183385.86, -183370.31, -183357.03, 0.00, 0.00, 0.00
248, -177481.81, -180666.78, -183378.38, -183291.92, -183388.80, -183419.91, -183404.19, -183390.94, 0.00, 0.00, 0.00
249, -177292.36, -180421.67, -183320.08, -183233.69, -183330.50, -183361.72, -183346.03, -183332.78, 0.00, 0.00, 0.00
250, -177189.73, -180280.31, -183282.28, -183195.98, -183292.66, -183323.84, -183308.30, -183295.09, 0.00, 0.00, 0.00
251, -177371.77, -180515.09, -183340.47, -183253.98, -183350.81, -183381.95, -183366.28, -183353.08, 0.00, 0.00, 0.00
252, -177506.03, -180698.64, -183388.23, -183301.63, -183398.58, -183429.67, -183413.92, -183400.69, 0.00, 0.00, 0.00
253, -177347.67, -180498.11, -183340.22, -183253.70, -183350.59, -183381.69, -183366.02, -183352.77, 0.00, 0.00, 0.00
254, -177199.53, -180298.13, -183286.88, -183200.50, -183297.31, -183328.42, -183312.70, -183299.45, 0.04, -0.03, 0.98
255, -177343.56, -180481.81, -183331.38, -183244.89, -183341.67, -183372.91, -183357.19, -183343.91, 0.00, 0.00, 0.00
0, -177516.52, -180716.42, -183393.80, -183307.25, -183404.13, -183435.33, -183419.58, -183406.31, 0.00, 0.00, 0.00
1, -177398.44, -180569.72, -183359.80, -183273.39, -183370.27, -183401.33, -183385.75, -183372.34, 0.00, 0.00, 0.00
2, -177214.48, -180324.86, -183296.64, -183210.14, -183307.13, -183338.13, -183322.63, -183309.27, 0.00, 0.00, 0.00
3, -177313.23, -180447.84, -183326.47, -183239.97, -183336.84, -183367.92, -183352.38, -183339.11, 0.00, 0.00, 0.00
4, -177517.97, -180721.06, -183397.23, -183310.70, -183407.48, -183438.66, -183423.08, -183409.72, 0.00, 0.00, 0.00
5, -177450.19, -180639.73, -183378.98, -183292.45, -183389.31, -183420.44, -183404.81, -183391.56, 0.00, 0.00, 0.00
6, -177244.16, -180367.78, -183310.16, -183223.75, -183320.64, -183351.53, -183336.00, -183322.88, 0.00, 0.00, 0.00
7, -177291.06, -180421.80, -183322.72, -183236.20, -183333.11, -183364.05, -183348.53, -183335.34, 0.00, 0.00, 0.00
8, -177508.31, -180710.31, -183395.77, -183309.11, -183406.19, -183437.20, -183421.41, -183408.31, 0.03, -0.03, 0.98
9, -177493.41, -180699.56, -183395.72, -183309.25, -183406.14, -183437.14, -183421.41, -183408.17, 0.00, 0.00, 0.00
10, -177280.31, -180419.30, -183327.59, -183241.09, -183337.86, -183368.94, -183353.28, -183340.06, 0.00, 0.00, 0.00
11, -177272.50, -180401.34, -183318.91, -183232.44, -183329.25, -183360.31, -183344.63, -183331.48, 0.00, 0.00, 0.00
12, -177492.42, -180688.80, -183392.92, -183306.50, -183403.34, -183434.30, -183418.63, -183405.47, 0.00, 0.00, 0.00
13, -177533.34, -180753.28, -183412.34, -183325.89, -183422.70, -183453.70, -183438.06, -183424.88, 0.00, 0.00, 0.00
14, -177327.36, -180486.06, -183346.08, -183259.58, -183356.41, -183387.42, -183371.94, -183358.66, 0.00, 0.00, 0.00
15, -177263.59, -180395.09, -183319.41, -183232.98, -183329.77, -183360.78, -183345.20, -183332.09, 0.00, 0.00, 0.00
16, -177464.75, -180657.63, -183385.47, -183299.08, -183395.81, -183426.83, -183411.14, -183397.98, 0.00, 0.00, 0.00
17, -177560.08, -180791.91, -183422.36, -183335.86, -183432.72, -183463.81, -183448.06, -183434.92, 0.00, 0.00, 0.00
18, -177377.30, -180556.17, -183365.64, -183279.09, -183376.09, -183407.05, -183391.41, -183378.31, 0.04, -0.03, 0.98
19, -177263.00, -180399.61, -183324.17, -183237.72, -183334.66, -183365.70, -183350.08, -183336.84, 0.00, 0.00, 0.00
20, -177438.11, -180624.48, -183377.89, -183291.36, -183388.25, -183419.33, -183403.61, -183390.33, 0.00, 0.00, 0.00
21, -177582.84, -180821.56, -183432.20, -183345.52, -183442.48, -183473.55, -183457.72, -183444.50, 0.00, 0.00, 0.00
22, -177433.38, -180631.17, -183389.55, -183302.94, -183399.83, -183430.95, -183415.17, -183401.91, 0.00, 0.00, 0.00
23, -177274.83, -180418.72, -183333.11, -183246.66, -183343.48, -183374.55, -183359.05, -183345.70, 0.00, 0.00, 0.00
24, -177407.94, -180588.14, -183374.08, -183287.70, -183384.56, -183415.59, -183400.02, -183386.73, 0.00, 0.00, 0.00
25, -177590.77, -180834.41, -183437.78, -183351.28, -183448.22, -183479.14, -183463.48, -183450.23, 0.00, 0.00, 0.00
26, -177485.19, -180702.89, -183407.61, -183321.11, -183417.94, -183448.98, -183433.39, -183420.11, 0.00, 0.00, 0.00
27, -177294.83, -180449.73, -183343.58, -183257.28, -183353.95, -183385.02, -183369.39, -183356.25, 0.00, 0.00, 0.00
28, -177382.72, -180558.97, -183367.80, -183281.38, -183378.17, -183409.16, -183393.58, -183380.36, 0.03, -0.03, 0.98
29, -177591.95, -180838.14, -183441.86, -183355.36, -183452.23, -183483.25, -183467.61, -183454.38, 0.00, 0.00, 0.00
30, -177536.30, -180773.91, -183429.34, -183342.88, -183439.69, -183470.78, -183455.11, -183441.92, 0.00, 0.00, 0.00
31, -177326.84, -180497.75, -183360.00, -183273.56, -183370.39, -183401.47, -183385.84, -183372.72, 0.00, 0.00, 0.00
32, -177359.44, -180533.89, -183368.55, -183282.05, -183378.88, -183409.89, -183394.31, -183381.19, 0.00, 0.00, 0.00
33, -177578.81, -180824.47, -183444.00, -183357.44, -183454.28, -183485.38, -183469.66, -183456.56, 0.00, 0.00, 0.00
34, -177577.98, -180831.66, -183449.39, -183362.75, -183459.69, -183490.73, -183475.06, -183461.92, 0.00, 0.00, 0.00
35, -177365.69, -180553.73, -183379.09, -183292.50, -183389.44, -183420.44, -183404.89, -183391.72, 0.00, 0.00, 0.00
36, -177346.05, -180519.25, -183367.41, -183280.94, -183377.81, -183408.84, -183393.31, -183380.13, 0.00, 0.00, 0.00
37, -177561.64, -180802.56, -183438.17, -183351.59, -183448.58, -183479.66, -183464.00, -183450.78, 0.00, 0.00, 0.00
38, -177615.88, -180883.36, -183463.30, -183376.64, -183473.55, -183504.66, -183489.00, -183475.83, 0.04, -0.02, 0.98
39, -177413.75, -180622.14, -183399.30, -183312.75, -183409.52, -183440.64, -183425.05, -183411.95, 0.00, 0.00, 0.00
40, -177336.14, -180513.59, -183370.33, -183283.73, -183380.55, -183411.69, -183396.22, -183382.91, 0.00, 0.00, 0.00
41, -177531.34, -180768.44, -183434.22, -183347.59, -183444.45, -183475.56, -183460.00, -183446.73, 0.00, 0.00, 0.00
42, -177640.14, -180919.84, -183477.22, -183390.53, -183487.39, -183518.52, -183502.81, -183489.59, 0.00, 0.00, 0.00
43, -177464.59, -180693.59, -183421.67, -183335.08, -183431.89, -183463.06, -183447.28, -183434.25, 0.00, 0.00, 0.00
44, -177339.31, -180521.98, -183374.67, -183288.25, -183385.03, -183416.17, -183400.50, -183387.39, 0.00, 0.00, 0.00
45, -177504.67, -180734.45, -183427.78, -183341.30, -183438.22, -183469.22, -183453.56, -183440.31, 0.00, 0.00, 0.00
46, -177659.22, -180945.91, -183483.59, -183397.05, -183493.91, -183524.95, -183509.30, -183496.06, 0.00, 0.00, 0.00
47, -177519.36, -180768.97, -183439.86, -183353.36, -183450.19, -183481.27, -183465.69, -183452.50, 0.00, 0.00, 0.00
48, -177349.44, -180541.81, -183383.19, -183296.84, -183393.63, -183424.58, -183409.06, -183395.88, 0.03, -0.03, 0.98
49, -177471.92, -180697.23, -183421.00, -183334.64, -183431.47, -183462.48, -183446.81, -183433.61, 0.00, 0.00, 0.00
50, -177663.13, -180954.53, -183486.72, -183400.30, -183497.16, -183528.25, -183512.42, -183499.17, 0.00, 0.00, 0.00
51, -177569.77, -180839.44, -183462.91, -183376.55, -183473.30, -183504.44, -183488.66, -183475.42, 0.00, 0.00, 0.00
52, -177374.55, -180578.08, -183396.45, -183310.05, -183406.78, -183437.91, -183422.25, -183409.02, 0.00, 0.00, 0.00
53, -177448.95, -180668.58, -183416.08, -183329.67, -183426.48, -183457.55, -183441.86, -183428.69, 0.00, 0.00, 0.00
54, -177662.66, -180954.06, -183487.86, -183401.44, -183498.25, -183529.36, -183513.66, -183500.42, 0.00, 0.00, 0.00
55, -177620.34, -180907.39, -183481.31, -183394.97, -183491.72, -183522.83, -183507.17, -183493.88, 0.00, 0.00, 0.00
56, -177407.56, -180626.03, -183410.97, -183324.73, -183421.47, -183452.42, -183436.89, -183423.73, 0.00, 0.00, 0.00
57, -177426.73, -180644.25, -183411.86, -183325.47, -183422.19, -183453.30, -183437.75, -183424.48, 0.00, 0.00, 0.00
58, -177647.56, -180936.45, -183486.56, -183400.02, -183496.81, -183527.98, -183512.22, -183499.02, 0.04, -0.03, 0.98
59, -177661.22, -180963.77, -183497.94, -183411.41, -183508.39, -183539.39, -183523.59, -183510.52, 0.00, 0.00, 0.00
60, -177451.14, -180688.67, -183430.13, -183343.80, -183440.64, -183471.72, -183455.94, -183442.86, 0.00, 0.00, 0.00
61, -177416.19, -180634.95, -183413.73, -183327.38, -183424.17, -183455.38, -183439.53, -183426.36, 0.00, 0.00, 0.00
62, -177628.72, -180913.38, -183482.98, -183396.42, -183493.33, -183524.42, -183508.64, -183495.48, 0.00, 0.00, 0.00
63, -177695.73, -181012.36, -183512.59, -183426.03, -183522.95, -183554.02, -183538.17, -183525.08, 0.00, 0.00, 0.00
64, -177498.33, -180757.08, -183451.42, -183364.81, -183461.75, -183492.84, -183477.06, -183463.97, 0.00, 0.00, 0.00
65, -177408.58, -180632.16, -183417.52, -183331.02, -183427.73, -183458.91, -183443.16, -183430.09, 0.00, 0.00, 0.00
66, -177598.86, -180879.11, -183478.02, -183391.52, -183488.30, -183519.42, -183503.66, -183490.52, 0.00, 0.00, 0.00
67, -177719.30, -181046.28, -183523.58, -183437.03, -183533.83, -183564.91, -183549.19, -183536.00, 0.00, 0.00, 0.00
68, -177551.98, -180831.53, -183471.97, -183385.47, -183482.31, -183513.38, -183497.58, -183484.39, 0.04, -0.02, 0.99
69, -177415.16, -180644.69, -183424.88, -183338.44, -183435.22, -183466.28, -183450.55, -183437.41, 0.00, 0.00, 0.00
70, -177571.17, -180845.52, -183472.77, -183386.25, -183483.16, -183514.19, -183498.36, -183485.33, 0.00, 0.00, 0.00
71, -177735.36, -181069.22, -183531.59, -183445.05, -183541.91, -183573.00, -183557.14, -183544.06, 0.00, 0.00, 0.00
72, -177604.98, -180904.44, -183493.44, -183406.86, -183503.70, -183534.80, -183518.98, -183505.98, 0.00, 0.00, 0.00
73, -177428.34, -180667.92, -183432.13, -183345.59, -183442.39, -183473.48, -183457.80, -183444.72, 0.00, 0.00, 0.00
74, -177540.39, -180808.89, -183464.25, -183377.75, -183474.53, -183505.63, -183489.95, -183476.88, 0.00, 0.00, 0.00
75, -177737.98, -181074.25, -183532.88, -183446.33, -183543.16, -183574.22, -183558.55, -183545.33, 0.00, 0.00, 0.00
76, -177657.72, -180975.05, -183513.31, -183426.77, -183523.63, -183554.64, -183538.95, -183525.73, 0.00, 0.00, 0.00
77, -177455.72, -180706.31, -183445.61, -183359.11, -183455.84, -183487.00, -183471.27, -183458.28, 0.04, -0.03, 0.98
78, -177516.36, -180779.81, -183459.98, -183373.38, -183470.11, -183501.38, -183485.52, -183472.59, 0.00, 0.00, 0.00
79, -177732.92, -181068.77, -183533.45, -183447.00, -183543.78, -183574.92, -183559.02, -183546.03, 0.00, 0.00, 0.00
80, -177703.22, -181039.00, -183529.42, -183442.95, -183539.78, -183570.89, -183555.00, -183541.92, 0.00, 0.00, 0.00
81, -177489.66, -180757.50, -183459.33, -183372.83, -183469.66, -183500.86, -183485.02, -183472.02, 0.00, 0.00, 0.00
82, -177495.86, -180758.59, -183458.08, -183371.52, -183468.28, -183499.48, -183483.77, -183470.67, 0.00, 0.00, 0.00
83, -177716.86, -181050.36, -183532.42, -183445.86, -183542.61, -183573.80, -183558.02, -183544.86, 0.00, 0.00, 0.00
84, -177745.36, -181095.86, -183547.98, -183461.48, -183558.16, -183589.42, -183573.58, -183560.41, 0.00, 0.00, 0.00
85, -177537.48, -180822.88, -183480.80, -183394.38, -183490.98, -183522.25, -183506.50, -183493.38, 0.00, 0.00, 0.00
86, -177487.86, -180750.48, -183461.59, -183375.16, -183471.88, -183503.05, -183487.30, -183474.25, 0.00, 0.00, 0.00
87, -177695.45, -181023.47, -183527.19, -183440.73, -183537.56, -183568.56, -183552.77, -183539.72, 0.04, -0.03, 0.98
88, -177775.38, -181139.56, -183557.77, -183471.19, -183567.97, -183599.06, -183583.28, -183570.17, 0.00, 0.00, 0.00
89, -177584.94, -180892.73, -183500.53, -183413.88, -183510.59, -183541.81, -183526.05, -183512.94, 0.00, 0.00, 0.00
90, -177482.02, -180751.11, -183464.31, -183377.81, -183474.48, -183505.56, -183489.95, -183476.86, 0.00, 0.00, 0.00
91, -177664.98, -180987.81, -183520.98, -183434.50, -183531.28, -183562.28, -183546.53, -183533.47, 0.00, 0.00, 0.00
92, -177798.94, -181172.38, -183569.42, -183482.98, -183579.63, -183610.72, -183594.89, -183581.89, 0.00, 0.00, 0.00
93, -177640.69, -180968.91, -183521.88, -183435.48, -183532.14, -183563.16, -183547.53, -183534.45, 0.00, 0.00, 0.00
94, -177492.77, -180768.28, -183470.94, -183384.45, -183481.16, -183512.11, -183496.48, -183483.50, 0.00, 0.00, 0.00
95, -177638.00, -180954.94, -183515.02, -183428.56, -183525.31, -183556.31, -183540.56, -183527.53, 0.00, 0.00, 0.00
96, -177810.63, -181189.89, -183576.22, -183489.63, -183586.42, -183617.42, -183601.64, -183588.64, 0.00, 0.00, 0.00
97, -177692.41, -181041.19, -183543.00, -183456.47, -183553.19, -183584.28, -183568.52, -183555.47, 0.04, -0.02, 0.98
98, -177508.56, -180794.69, -183480.14, -183393.59, -183490.36, -183521.41, -183505.72, -183492.69, 0.00, 0.00, 0.00
99, -177608.83, -180920.02, -183508.20, -183421.63, -183518.48, -183549.45, -183533.78, -183520.75, 0.00, 0.00, 0.00
100, -177813.94, -181194.61, -183580.09, -183493.41, -183590.31, -183621.36, -183605.56, -183592.48, 0.00, 0.00, 0.00
101, -177744.69, -181111.59, -183564.34, -183477.64, -183574.47, -183605.52, -183589.78, -183576.69, 0.00, 0.00, 0.00
102, -177538.27, -180838.17, -183496.28, -183409.73, -183506.50, -183537.61, -183521.83, -183508.84, 0.00, 0.00, 0.00
103, -177585.97, -180893.73, -183508.17, -183421.72, -183518.36, -183549.50, -183533.72, -183520.72, 0.00, 0.00, 0.00
104, -177803.47, -181184.58, -183582.77, -183496.27, -183592.91, -183624.02, -183608.22, -183595.23, 0.00, 0.00, 0.00
105, -177788.20, -181173.13, -183583.92, -183497.41, -183594.05, -183625.23, -183609.41, -183596.34, 0.00, 0.00, 0.00
106, -177575.03, -180891.44, -183513.31, -183426.83, -183523.55, -183554.48, -183538.91, -183525.78, 0.00, 0.00, 0.00
107, -177567.70, -180874.36, -183505.02, -183418.50, -183515.23, -183546.19, -183530.70, -183517.61, 0.04, -0.02, 0.98
108, -177787.27, -181164.95, -183576.48, -183489.84, -183586.69, -183617.73, -183602.03, -183589.02, 0.00, 0.00, 0.00
109, -177827.33, -181228.39, -183596.31, -183509.64, -183606.45, -183637.55, -183621.78, -183608.75, 0.00, 0.00, 0.00
110, -177621.94, -180958.84, -183532.77, -183446.30, -183543.00, -183574.02, -183558.42, -183545.34, 0.00, 0.00, 0.00
111, -177559.08, -180867.41, -183507.72, -183421.36, -183518.03, -183549.03, -183533.56, -183520.41, 0.00, 0.00, 0.00
112, -177760.09, -181131.67, -183571.89, -183485.38, -183582.05, -183613.14, -183597.53, -183584.39, 0.00, 0.00, 0.00
113, -177854.86, -181266.70, -183608.72, -183522.13, -183618.91, -183649.95, -183634.33, -183621.19, 0.00, 0.00, 0.00
114, -177671.16, -181028.98, -183552.55, -183466.05, -183562.78, -183593.83, -183578.27, -183565.08, 0.00, 0.00, 0.00
115, -177558.20, -180871.41, -183511.97, -183425.42, -183522.14, -183553.28, -183537.72, -183524.58, 0.00, 0.00, 0.00
116, -177733.59, -181099.23, -183567.73, -183481.17, -183577.86, -183609.11, -183593.44, -183580.25, 0.00, 0.00, 0.00
117, -177877.86, -181297.47, -183620.48, -183533.97, -183630.64, -183661.84, -183646.08, -183632.89, 0.03, -0.03, 0.98
118, -177728.50, -181105.20, -183574.88, -183488.48, -183585.08, -183616.25, -183600.53, -183587.41, 0.00, 0.00, 0.00
119, -177570.20, -180890.84, -183519.64, -183433.31, -183529.97, -183561.03, -183545.39, -183532.36, 0.00, 0.00, 0.00
120, -177703.27, -181062.41, -183562.39, -183475.98, -183572.69, -183603.75, -183588.11, -183575.00, 0.00, 0.00, 0.00
121, -177885.17, -181310.75, -183626.06, -183539.47, -183636.20, -183667.34, -183651.67, -183638.48, 0.00, 0.00, 0.00
122, -177778.89, -181177.80, -183595.09, -183508.53, -183605.25, -183636.38, -183620.69, -183607.55, 0.00, 0.00, 0.00
123, -177589.14, -180922.59, -183529.94, -183443.44, -183540.09, -183571.30, -183555.56, -183542.55, 0.00, 0.00, 0.00
124, -177677.88, -181032.05, -183554.86, -183468.28, -183564.95, -183596.11, -183580.38, -183567.41, 0.00, 0.00, 0.00
125, -177887.52, -181313.66, -183625.25, -183538.59, -183635.42, -183666.53, -183650.75, -183637.80, 0.00, 0.00, 0.00
126, -177830.83, -181248.36, -183613.20, -183526.64, -183623.44, -183654.53, -183638.80, -183625.72, 0.00, 0.00, 0.00
127, -177620.72, -180969.91, -183545.64, -183459.11, -183555.73, -183586.94, -183571.20, -183558.13, 0.03, -0.02, 0.98
128, -177653.64, -181006.25, -183551.69, -183465.17, -183561.81, -183593.00, -183577.19, -183564.19, 0.00, 0.00, 0.00
129, -177873.03, -181299.39, -183625.81, -183539.23, -183635.98, -183667.03, -183651.22, -183638.28, 0.00, 0.00, 0.00
130, -177871.08, -181306.30, -183633.30, -183546.75, -183643.52, -183674.53, -183658.73, -183645.70, 0.00, 0.00, 0.00
131, -177659.23, -181026.13, -183563.03, -183476.59, -183573.28, -183604.47, -183588.70, -183575.52, 0.00, 0.00, 0.00
132, -177640.06, -180992.23, -183552.09, -183465.64, -183562.28, -183593.47, -183577.78, -183564.70, 0.00, 0.00, 0.00
133, -177855.73, -181278.08, -183623.13, -183536.69, -183633.34, -183664.48, -183648.70, -183635.69, 0.00, 0.00, 0.00
134, -177909.73, -181359.23, -183647.38, -183560.70, -183657.48, -183688.48, -183672.75, -183659.73, 0.00, 0.00, 0.00
135, -177708.28, -181095.30, -183583.75, -183497.11, -183593.84, -183624.88, -183609.20, -183596.13, 0.00, 0.00, 0.00
136, -177631.34, -180987.19, -183552.72, -183466.16, -183562.89, -183593.95, -183578.31, -183565.19, 0.00, 0.00, 0.00
137, -177827.95, -181244.50, -183616.69, -183529.98, -183626.84, -183657.77, -183642.17, -183628.97, 0.03, -0.02, 0.98
138, -177935.22, -181395.16, -183658.44, -183571.67, -183668.55, -183699.59, -183683.88, -183670.72, 0.00, 0.00, 0.00
139, -177758.83, -181166.72, -183605.69, -183518.98, -183615.78, -183646.83, -183631.20, -183618.03, 0.00, 0.00, 0.00
140, -177634.92, -180995.25, -183559.89, -183473.42, -183570.00, -183601.06, -183585.58, -183572.34, 0.00, 0.00, 0.00
141, -177799.83, -181209.98, -183610.13, -183523.55, -183620.22, -183651.36, -183635.64, -183622.56, 0.00, 0.00, 0.00
142, -177953.94, -181422.59, -183664.17, -183577.59, -183674.41, -183705.50, -183689.73, -183676.58, 0.00, 0.00, 0.00
143, -177813.44, -181242.59, -183622.64, -183536.00, -183632.73, -183663.77, -183648.05, -183635.02, 0.00, 0.00, 0.00
144, -177644.48, -181014.70, -183563.56, -183477.02, -183573.58, -183604.69, -183589.09, -183575.92, 0.00, 0.00, 0.00
145, -177768.47, -181172.70, -183602.63, -183516.06, -183612.73, -183643.83, -183628.22, -183615.03, 0.00, 0.00, 0.00
146, -177959.58, -181432.03, -183671.25, -183584.64, -183681.41, -183712.47, -183696.78, -183683.55, 0.00, 0.00, 0.00
147, -177865.08, -181314.78, -183646.06, -183559.61, -183656.25, -183687.39, -183671.67, -183658.53, 0.03, -0.02, 0.98
148, -177669.00, -181051.41, -183579.20, -183492.70, -183589.38, -183620.52, -183604.75, -183591.83, 0.00, 0.00, 0.00
149, -177744.89, -181144.05, -183598.30, -183511.66, -183608.31, -183639.47, -183623.70, -183610.75, 0.00, 0.00, 0.00
150, -177957.91, -181431.31, -183672.06, -183585.42, -183682.06, -183713.19, -183697.45, -183684.42, 0.00, 0.00, 0.00
151, -177914.72, -181383.38, -183663.88, -183577.28, -183673.95, -183705.06, -183689.30, -183676.28, 0.00, 0.00, 0.00
152, -177701.30, -181100.53, -183593.47, -183506.94, -183603.69, -183634.61, -183619.00, -183605.92, 0.00, 0.00, 0.00
153, -177721.67, -181119.89, -183595.95, -183509.42, -183606.25, -183637.14, -183621.52, -183608.48, 0.00, 0.00, 0.00
154, -177942.41, -181414.47, -183669.34, -183582.83, -183679.64, -183710.64, -183694.81, -183681.84, 0.00, 0.00, 0.00
155, -177954.56, -181441.42, -183680.95, -183594.31, -183691.13, -183722.08, -183706.28, -183693.36, 0.00, 0.00, 0.00
156, -177744.44, -181163.36, -183610.55, -183523.95, -183620.67, -183651.69, -183636.06, -183623.02, 0.03, -0.02, 0.98
157, -177710.47, -181109.61, -183595.70, -183509.30, -183605.89, -183636.97, -183621.39, -183608.42, 0.00, 0.00, 0.00
158, -177923.33, -181390.33, -183665.48, -183579.05, -183675.72, -183706.67, -183691.03, -183677.94, 0.00, 0.00, 0.00
159, -177990.16, -181489.45, -183693.63, -183607.11, -183703.80, -183734.84, -183719.11, -183705.98, 0.00, 0.00, 0.00
160, -177793.44, -181231.73, -183629.78, -183543.28, -183640.03, -183671.08, -183655.36, -183642.33, 0.00, 0.00, 0.00
161, -177704.61, -181106.95, -183596.64, -183510.16, -183606.77, -183637.83, -183622.28, -183609.11, 0.00, 0.00, 0.00
162, -177895.06, -181356.27, -183656.50, -183569.97, -183666.64, -183697.69, -183682.09, -183668.92, 0.00, 0.00, 0.00
163, -178014.58, -181524.48, -183702.98, -183616.47, -183713.05, -183744.23, -183728.45, -183715.31, 0.00, 0.00, 0.00
164, -177847.44, -181307.11, -183654.47, -183567.94, -183664.48, -183695.69, -183679.95, -183666.94, 0.00, 0.00, 0.00
165, -177711.06, -181118.64, -183607.77, -183521.22, -183617.83, -183648.98, -183633.36, -183620.31, 0.00, 0.00, 0.00
166, -177867.84, -181320.72, -183654.47, -183567.92, -183664.64, -183695.61, -183680.06, -183666.89, 0.03, -0.02, 0.98
167, -178031.89, -181546.25, -183714.44, -183627.98, -183724.66, -183755.67, -183740.03, -183726.89, 0.00, 0.00, 0.00
168, -177901.06, -181380.52, -183676.55, -183590.09, -183686.72, -183717.67, -183702.00, -183688.95, 0.00, 0.00, 0.00
169, -177724.92, -181142.31, -183616.13, -183529.56, -183626.33, -183657.23, -183641.59, -183628.50, 0.00, 0.00, 0.00
170, -177836.95, -181284.84, -183649.33, -183562.72, -183659.52, -183690.41, -183674.72, -183661.70, 0.00, 0.00, 0.00
171, -178034.97, -181554.05, -183720.33, -183633.72, -183730.48, -183761.53, -183745.77, -183732.70, 0.00, 0.00, 0.00
172, -177953.31, -181453.89, -183697.94, -183611.34, -183708.09, -183739.22, -183723.39, -183710.36, 0.00, 0.00, 0.00
173, -177751.73, -181183.06, -183629.61, -183543.13, -183639.78, -183670.89, -183655.22, -183642.13, 0.00, 0.00, 0.00
174, -177814.31, -181257.33, -183645.19, -183558.67, -183655.36, -183686.39, -183670.78, -183657.69, 0.00, 0.00, 0.00
175, -178031.28, -181549.41, -183719.20, -183632.58, -183729.23, -183760.28, -183744.61, -183731.48, 0.00, 0.00, 0.00
176, -178000.45, -181518.64, -183716.52, -183629.88, -183726.64, -183757.63, -183741.91, -183728.83, 0.03, -0.03, 0.99
177, -177786.08, -181233.64, -183645.64, -183559.09, -183655.83, -183686.77, -183671.14, -183658.09, 0.00, 0.00, 0.00
178, -177792.41, -181235.16, -183643.72, -183557.23, -183653.92, -183684.89, -183669.23, -183656.23, 0.00, 0.00, 0.00
179, -178013.36, -181530.25, -183715.17, -183628.61, -183725.28, -183756.36, -183740.66, -183727.53, 0.00, 0.00, 0.00
180, -178040.92, -181576.38, -183732.14, -183645.56, -183742.20, -183773.31, -183757.69, -183744.45, 0.00, 0.00, 0.00
181, -177832.08, -181299.33, -183666.20, -183579.70, -183676.33, -183707.34, -183691.70, -183678.63, 0.00, 0.00, 0.00
182, -177784.19, -181226.64, -183642.86, -183556.36, -183653.03, -183683.98, -183668.44, -183655.34, 0.00, 0.00, 0.00
183, -177992.25, -181502.55, -183712.17, -183625.67, -183722.39, -183753.34, -183737.69, -183724.61, 0.00, 0.00, 0.00
184, -178071.77, -181620.45, -183746.33, -183659.81, -183756.52, -183787.45, -183771.77, -183758.73, 0.00, 0.00, 0.00
185, -177880.98, -181370.34, -183685.84, -183599.44, -183696.06, -183727.00, -183711.39, -183698.39, 0.00, 0.00, 0.00
186, -177780.42, -181227.30, -183650.95, -183564.61, -183661.11, -183692.03, -183676.50, -183663.47, 0.03, -0.02, 0.99
187, -177963.72, -181466.70, -183709.41, -183623.02, -183719.55, -183750.59, -183734.95, -183721.78, 0.00, 0.00, 0.00
188, -178096.69, -181653.11, -183754.89, -183668.30, -183765.05, -183796.06, -183780.42, -183767.20, 0.00, 0.00, 0.00
189, -177937.05, -181447.64, -183705.83, -183619.22, -183715.89, -183747.03, -183731.38, -183718.14, 0.00, 0.00, 0.00
190, -177789.02, -181245.38, -183654.58, -183568.08, -183664.59, -183695.72, -183680.08, -183667.00, 0.00, 0.00, 0.00
191, -177935.48, -181433.94, -183701.77, -183615.27, -183711.86, -183742.98, -183727.20, -183714.25, 0.00, 0.00, 0.00
192, -178107.66, -181671.22, -183764.30, -183677.73, -183774.41, -183805.52, -183789.66, -183776.75, 0.00, 0.00, 0.00
193, -177988.55, -181520.77, -183728.67, -183642.08, -183738.69, -183769.83, -183754.13, -183741.08, 0.00, 0.00, 0.00
194, -177805.13, -181271.91, -183665.28, -183578.69, -183675.25, -183706.44, -183690.83, -183677.72, 0.00, 0.00, 0.00
195, -177906.00, -181398.23, -183696.69, -183610.00, -183706.59, -183737.80, -183722.17, -183709.00, 0.00, 0.00, 0.00
196, -178111.14, -181675.22, -183767.36, -183680.64, -183777.25, -183808.45, -183792.70, -183779.55, 0.03, -0.03, 0.99
197, -178041.81, -181592.05, -183747.73, -183661.06, -183757.53, -183788.80, -183773.05, -183759.88, 0.00, 0.00, 0.00
198, -177835.70, -181315.73, -183678.72, -183592.11, -183688.58, -183719.84, -183704.16, -183691.03, 0.00, 0.00, 0.00
199, -177884.27, -181372.47, -183690.91, -183604.36, -183700.89, -183732.14, -183716.48, -183703.38, 0.00, 0.00, 0.00
200, -178102.14, -181666.28, -183765.00, -183678.34, -183774.94, -183806.19, -183790.36, -183777.25, 0.00, 0.00, 0.00
201, -178086.44, -181654.75, -183764.81, -183678.25, -183774.83, -183805.97, -183790.30, -183777.13, 0.00, 0.00, 0.00
202, -177872.63, -181369.94, -183695.48, -183609.00, -183705.42, -183736.63, -183721.03, -183707.91, 0.00, 0.00, 0.00
203, -177866.19, -181353.27, -183687.45, -183600.94, -183697.50, -183728.66, -183712.98, -183699.95, 0.00, 0.00, 0.00
204, -178086.02, -181646.91, -183761.98, -183675.50, -183772.06, -183803.28, -183787.55, -183774.41, 0.00, 0.00, 0.00
205, -178125.77, -181710.41, -183782.55, -183696.16, -183792.58, -183823.75, -183808.05, -183794.98, 0.00, 0.00, 0.00
206, -177920.02, -181437.73, -183715.16, -183628.78, -183725.23, -183756.33, -183740.75, -183727.69, 0.03, -0.03, 0.98
207, -177857.55, -181346.64, -183689.98, -183603.56, -183700.17, -183731.17, -183715.63, -183702.48, 0.00, 0.00, 0.00
208, -178059.67, -181615.09, -183756.56, -183670.06, -183766.67, -183797.73, -183782.11, -183769.00, 0.00, 0.00, 0.00
209, -178153.36, -181750.72, -183795.06, -183708.58, -183805.14, -183836.25, -183820.56, -183807.48, 0.00, 0.00, 0.00
210, -177969.55, -181508.86, -183738.58, -183652.08, -183748.59, -183779.75, -183764.09, -183751.03, 0.00, 0.00, 0.00
211, -177856.98, -181349.13, -183696.47, -183609.98, -183706.50, -183737.59, -183722.03, -183708.91, 0.00, 0.00, 0.00
212, -178033.92, -181579.67, -183750.67, -183664.14, -183760.75, -183791.84, -183776.17, -183763.16, 0.00, 0.00, 0.00
213, -178177.17, -181781.28, -183803.44, -183716.88, -183813.50, -183844.59, -183828.94, -183815.91, 0.00, 0.00, 0.00
214, -178027.19, -181586.95, -183759.70, -183673.27, -183769.80, -183800.84, -183785.30, -183772.17, 0.00, 0.00, 0.00
215, -177868.16, -181370.23, -183703.91, -183617.50, -183714.06, -183745.13, -183729.56, -183716.42, 0.00, 0.00, 0.00
216, -178002.17, -181544.30, -183744.61, -183658.00, -183754.67, -183785.72, -183770.09, -183757.02, 0.04, -0.03, 0.98
217, -178184.61, -181795.41, -183806.75, -183720.17, -183816.88, -183847.88, -183832.11, -183819.17, 0.00, 0.00, 0.00
218, -178077.59, -181660.78, -183777.25, -183690.70, -183787.30, -183818.33, -183802.66, -183789.69, 0.00, 0.00, 0.00
219, -177887.22, -181402.53, -183713.11, -183626.66, -183723.06, -183754.20, -183738.70, -183725.66, 0.00, 0.00, 0.00
220, -177976.78, -181513.59, -183738.69, -183652.16, -183748.64, -183779.77, -183764.13, -183751.11, 0.00, 0.00, 0.00
221, -178186.16, -181798.20, -183812.98, -183726.48, -183822.95, -183854.09, -183838.38, -183825.41, 0.00, 0.00, 0.00
222, -178129.53, -181732.03, -183802.77, -183716.31, -183812.78, -183843.84, -183828.23, -183815.20, 0.00, 0.00, 0.00
223, -177920.50, -181450.53, -183732.36, -183646.00, -183742.48, -183773.52, -183757.95, -183744.91, 0.00, 0.00, 0.00
224, -177954.70, -181487.98, -183737.55, -183651.06, -183747.67, -183778.67, -183763.09, -183750.05, 0.00, 0.00, 0.00
225, -178175.45, -181785.25, -183810.39, -183723.83, -183820.53, -183851.50, -183835.81, -183822.66, 0.00, 0.00, 0.00
226, -178172.70, -181792.19, -183818.02, -183731.38, -183828.09, -183859.16, -183843.41, -183830.28, 0.04, -0.04, 0.98
227, -177959.83, -181508.66, -183747.53, -183661.06, -183757.50, -183788.70, -183773.08, -183759.92, 0.00, 0.00, 0.00
228, -177941.53, -181474.39, -183736.09, -183649.66, -183746.22, -183777.27, -183761.73, -183748.56, 0.00, 0.00, 0.00
229, -178158.23, -181763.94, -183807.69, -183721.13, -183817.81, -183849.00, -183833.19, -183820.05, 0.00, 0.00, 0.00
230, -178211.70, -181846.05, -183829.81, -183743.11, -183839.84, -183871.02, -183855.20, -183842.08, 0.00, 0.00, 0.00
231, -178010.05, -181578.88, -183765.44, -183678.92, -183775.56, -183806.70, -183791.09, -183777.91, 0.00, 0.00, 0.00
232, -177933.56, -181468.69, -183738.03, -183651.58, -183748.05, -183779.20, -183763.67, -183750.44, 0.00, 0.00, 0.00
233, -178129.97, -181729.31, -183800.98, -183714.38, -183810.95, -183842.20, -183826.42, -183813.30, 0.00, 0.00, 0.00
234, -178236.67, -181883.42, -183842.31, -183755.61, -183852.30, -183883.48, -183867.66, -183854.58, 0.00, 0.00, 0.00
235, -178060.63, -181652.63, -183788.84, -183702.30, -183798.88, -183830.03, -183814.38, -183801.27, 0.04, -0.03, 0.98
236, -177936.80, -181479.00, -183744.70, -183658.20, -183754.67, -183785.84, -183770.30, -183757.11, 0.00, 0.00, 0.00
237, -178102.58, -181697.06, -183795.58, -183708.95, -183805.50, -183836.72, -183820.94, -183807.83, 0.00, 0.00, 0.00
238, -178256.41, -181911.75, -183850.84, -183764.09, -183860.75, -183892.05, -183876.22, -183863.00, 0.00, 0.00, 0.00
239, -178115.77, -181729.00, -183809.94, -183723.31, -183819.91, -183851.19, -183835.41, -183822.28, 0.00, 0.00, 0.00
240, -177948.58, -181498.70, -183751.61, -183665.16, -183761.55, -183792.83, -183777.17, -183764.02, 0.00, 0.00, 0.00
241, -178072.91, -181658.86, -183788.23, -183701.72, -183798.13, -183829.33, -183813.61, -183800.59, 0.00, 0.00, 0.00
242, -178262.22, -181921.56, -183855.30, -183768.59, -183865.16, -183896.42, -183880.59, -183867.55, 0.00, 0.00, 0.00
243, -178166.58, -181803.19, -183829.30, -183742.59, -183839.16, -183870.34, -183854.53, -183841.45, 0.00, 0.00, 0.00
244, -177971.72, -181537.47, -183762.16, -183675.59, -183772.11, -183803.22, -183787.48, -183774.50, 0.00, 0.00, 0.00
245, -178047.44, -181630.45, -183785.36, -183698.66, -183795.28, -183826.48, -183810.64, -183797.72, 0.04, -0.03, 0.98
246, -178260.97, -181921.28, -183857.86, -183771.05, -183867.66, -183898.88, -183883.06, -183870.00, 0.00, 0.00, 0.00
247, -178216.58, -181872.14, -183848.67, -183762.00, -183858.48, -183889.73, -183873.92, -183860.81, 0.00, 0.00, 0.00
248, -178003.56, -181584.83, -183780.31, -183693.77, -183790.14, -183821.39, -183805.63, -183792.55, 0.00, 0.00, 0.00
249, -178025.53, -181605.13, -183782.11, -183695.66, -183792.06, -183823.31, -183807.55, -183794.45, 0.00, 0.00, 0.00
250, -178246.45, -181904.39, -183857.70, -183771.20, -183867.61, -183898.84, -183883.08, -183870.03, 0.00, 0.00, 0.00
251, -178258.08, -181930.88, -183867.64, -183781.05, -183877.47, -183908.73, -183892.95, -183879.91, 0.00, 0.00, 0.00
252, -178048.31, -181649.52, -183797.94, -183711.38, -183807.80, -183839.06, -183823.36, -183810.39, 0.00, 0.00, 0.00
253, -178015.75, -181595.72, -183784.78, -183698.28, -183794.67, -183825.92, -183810.19, -183797.30, 0.00, 0.00, 0.00
254, -178228.31, -181880.19, -183854.92, -183768.30, -183864.86, -183896.11, -183880.28, -183867.41, 0.00, 0.00, 0.00
255, -178294.89, -181980.66, -183882.14, -183795.61, -183892.06, -183923.30, -183907.44, -183894.55, 0.03, -0.03, 0.98
0, -178096.61, -181719.36, -183819.80, -183733.17, -183829.70, -183860.91, -183845.17, -183832.20, 0.00, 0.00, 0.00
1, -178009.17, -181593.86, -183786.52, -183699.91, -183796.47, -183827.63, -183811.98, -183799.11, 0.00, 0.00, 0.00
2, -178200.17, -181846.50, -183848.23, -183761.64, -183858.27, -183889.36, -183873.63, -183860.73, 0.00, 0.00, 0.00
3, -178319.42, -182017.20, -183891.33, -183804.63, -183901.25, -183932.41, -183916.63, -183903.69, 0.00, 0.00, 0.00
4, -178152.20, -181798.16, -183837.77, -183751.05, -183847.61, -183878.78, -183863.00, -183850.05, 0.00, 0.00, 0.00
5, -178016.91, -181608.20, -183791.30, -183704.78, -183801.27, -183832.44, -183816.69, -183803.75, 0.00, 0.00, 0.00
6, -178172.92, -181812.08, -183841.66, -183755.23, -183851.72, -183882.78, -183867.03, -183854.06, 0.00, 0.00, 0.00
7, -178336.11, -182040.38, -183898.92, -183812.31, -183908.94, -183940.03, -183924.16, -183911.13, 0.00, 0.00, 0.00
8, -178204.02, -181871.88, -183861.36, -183774.83, -183871.34, -183902.48, -183886.70, -183873.69, 0.00, 0.00, 0.00
9, -178028.75, -181630.83, -183802.44, -183716.02, -183812.52, -183843.63, -183827.95, -183814.97, 0.03, -0.02, 0.98
10, -178143.17, -181775.05, -183836.36, -183749.84, -183846.47, -183877.63, -183861.80, -183848.84, 0.00, 0.00, 0.00
11, -178340.83, -182047.39, -183902.28, -183815.52, -183912.19, -183943.39, -183927.48, -183914.48, 0.00, 0.00, 0.00
12, -178258.89, -181946.13, -183880.63, -183793.88, -183890.50, -183921.70, -183905.81, -183892.88, 0.00, 0.00, 0.00
13, -178058.11, -181671.03, -183816.52, -183729.95, -183826.44, -183857.67, -183841.84, -183828.92, 0.00, 0.00, 0.00
14, -178120.38, -181746.45, -183833.69, -183747.11, -183843.56, -183874.73, -183858.97, -183846.05, 0.00, 0.00, 0.00
15, -178335.59, -182042.59, -183904.25, -183817.61, -183914.03, -183945.19, -183929.38, -183916.42, 0.00, 0.00, 0.00
16, -178304.31, -182010.97, -183900.02, -183813.39, -183909.88, -183941.03, -183925.25, -183912.25, 0.00, 0.00, 0.00
17, -178091.25, -181722.61, -183831.38, -183744.78, -183841.23, -183872.42, -183856.70, -183843.77, 0.00, 0.00, 0.00
18, -178099.09, -181724.17, -183829.56, -183743.00, -183839.36, -183870.55, -183854.92, -183841.97, 0.00, 0.00, 0.00
19, -178319.27, -182022.45, -183902.03, -183815.36, -183911.78, -183942.95, -183927.20, -183914.27, 0.04, -0.03, 0.98
20, -178346.28, -182069.41, -183917.88, -183831.27, -183927.73, -183958.88, -183943.05, -183930.20, 0.00, 0.00, 0.00
21, -178137.50, -181789.09, -183851.05, -183764.44, -183860.89, -183892.05, -183876.22, -183863.34, 0.00, 0.00, 0.00
22, -178090.17, -181715.73, -183830.38, -183743.78, -183840.13, -183871.45, -183855.70, -183842.69, 0.00, 0.00, 0.00
23, -178298.39, -181995.30, -183898.34, -183811.78, -183908.20, -183939.41, -183923.64, -183910.69, 0.00, 0.00, 0.00
24, -178377.86, -182113.94, -183931.63, -183845.14, -183941.50, -183972.69, -183956.92, -183943.98, 0.00, 0.00, 0.00
25, -178187.23, -181860.30, -183873.05, -183786.61, -183882.88, -183914.11, -183898.34, -183885.53, 0.00, 0.00, 0.00
26, -178086.27, -181716.88, -183834.48, -183748.09, -183844.39, -183875.55, -183859.91, -183847.03, 0.00, 0.00, 0.00
27, -178269.38, -181959.58, -183892.11, -183805.70, -183902.02, -183933.27, -183917.45, -183904.47, 0.00, 0.00, 0.00
28, -178401.83, -182148.03, -183941.31, -183854.73, -183951.09, -183982.44, -183966.50, -183953.53, 0.00, 0.00, 0.00
29, -178241.81, -181939.03, -183893.47, -183806.86, -183903.28, -183934.56, -183918.78, -183905.75, 0.03, -0.03, 0.99
30, -178095.25, -181734.47, -183839.61, -183752.95, -183849.44, -183880.58, -183865.05, -183851.86, 0.00, 0.00, 0.00
31, -178241.81, -181925.73, -183885.47, -183798.81, -183895.38, -183926.52, -183910.80, -183897.63, 0.00, 0.00, 0.00
32, -178413.77, -182167.66, -183946.89, -183860.25, -183956.73, -183987.91, -183972.11, -183959.03, 0.00, 0.00, 0.00
33, -178294.77, -182015.23, -183912.53, -183826.03, -183922.42, -183953.64, -183937.84, -183924.81, 0.00, 0.00, 0.00
34, -178112.63, -181762.53, -183852.13, -183765.59, -183862.03, -183893.19, -183877.48, -183864.44, 0.00, 0.00, 0.00
35, -178214.28, -181890.72, -183881.78, -183795.17, -183891.64, -183922.80, -183907.05, -183894.05, 0.00, 0.00, 0.00
36, -178418.25, -182173.69, -183949.19, -183862.56, -183959.08, -183990.20, -183974.36, -183961.42, 0.00, 0.00, 0.00
37, -178348.30, -182088.75, -183932.61, -183846.00, -183942.52, -183973.63, -183957.83, -183944.81, 0.00, 0.00, 0.00
38, -178142.86, -181807.03, -183864.70, -183778.23, -183874.58, -183905.83, -183890.02, -183877.05, 0.00, 0.00, 0.00
39, -178191.77, -181864.78, -183876.42, -183789.92, -183886.30, -183917.59, -183901.75, -183888.80, 0.02, -0.02, 0.99
40, -178409.14, -182163.33, -183949.84, -183863.19, -183959.64, -183990.88, -183974.98, -183961.98, 0.00, 0.00, 0.00
41, -178392.58, -182152.14, -183950.56, -183863.98, -183960.38, -183991.66, -183975.77, -183962.77, 0.00, 0.00, 0.00
42, -178179.86, -181863.73, -183883.44, -183796.98, -183893.27, -183924.59, -183908.78, -183895.89, 0.00, 0.00, 0.00
43, -178174.73, -181847.39, -183875.08, -183788.63, -183884.95, -183916.16, -183900.41, -183887.55, 0.00, 0.00, 0.00
44, -178394.70, -182144.61, -183947.31, -183860.69, -183957.13, -183988.28, -183972.44, -183959.67, 0.00, 0.00, 0.00
45, -178433.97, -182208.33, -183968.28, -183881.69, -183978.03, -184009.28, -183993.34, -183980.48, 0.00, 0.00, 0.00
46, -178227.64, -181931.92, -183900.67, -183814.13, -183910.38, -183941.63, -183925.84, -183912.97, 0.00, 0.00, 0.00
47, -178166.89, -181840.20, -183875.38, -183788.98, -183885.27, -183916.39, -183900.69, -183887.80, 0.00, 0.00, 0.00
48, -178368.75, -182112.69, -183943.19, -183856.61, -183953.08, -183984.27, -183968.47, -183955.44, 0.00, 0.00, 0.00
49, -178462.06, -182250.22, -183980.58, -183893.98, -183990.55, -184021.66, -184005.80, -183992.83, 0.03, -0.03, 0.98
50, -178277.81, -182005.23, -183921.03, -183834.53, -183931.00, -183962.20, -183946.41, -183933.53, 0.00, 0.00, 0.00
51, -178164.94, -181844.33, -183881.47, -183795.14, -183891.44, -183922.69, -183906.97, -183894.08, 0.00, 0.00, 0.00
52, -178341.67, -182078.52, -183937.86, -183851.34, -183947.75, -183978.95, -183963.13, -183950.11, 0.00, 0.00, 0.00
53, -178484.55, -182281.94, -183990.81, -183904.20, -184000.72, -184031.92, -184015.95, -184003.00, 0.00, 0.00, 0.00
54, -178332.81, -182085.11, -183945.06, -183858.45, -183955.00, -183986.13, -183970.25, -183957.36, 0.00, 0.00, 0.00
55, -178175.56, -181864.98, -183890.20, -183803.69, -183900.11, -183931.30, -183915.56, -183902.56, 0.00, 0.00, 0.00
56, -178310.66, -182040.89, -183931.42, -183844.91, -183941.33, -183972.55, -183956.70, -183943.72, 0.00, 0.00, 0.00
57, -178493.11, -182296.81, -183994.02, -183907.36, -184003.91, -184035.14, -184019.20, -184006.23, 0.00, 0.00, 0.00
58, -178385.95, -182160.88, -183963.83, -183877.17, -183973.69, -184004.84, -183988.98, -183976.02, 0.03, -0.02, 0.98
59, -178196.23, -181898.28, -183900.14, -183813.63, -183910.03, -183941.19, -183925.44, -183912.36, 0.00, 0.00, 0.00
60, -178285.38, -182011.05, -183924.94, -183838.44, -183934.78, -183965.95, -183950.17, -183937.23, 0.00, 0.00, 0.00
61, -178493.92, -182300.20, -183997.36, -183910.75, -184007.05, -184038.33, -184022.55, -184009.44, 0.00, 0.00, 0.00
62, -178436.16, -182232.67, -183985.47, -183898.80, -183995.23, -184026.39, -184010.64, -183997.61, 0.00, 0.00, 0.00
63, -178227.23, -181945.88, -183914.81, -183828.25, -183924.66, -183955.78, -183940.14, -183927.14, 0.00, 0.00, 0.00
64, -178262.94, -181983.98, -183922.59, -183836.13, -183932.47, -183963.67, -183948.02, -183934.91, 0.00, 0.00, 0.00
65, -178482.94, -182285.78, -183996.11, -183909.63, -184005.97, -184037.17, -184021.25, -184008.27, 0.00, 0.00, 0.00
66, -178479.25, -182293.72, -184001.86, -183915.25, -184011.69, -184042.80, -184026.98, -184014.02, 0.00, 0.00, 0.00
67, -178266.23, -182004.91, -183933.77, -183847.20, -183943.56, -183974.77, -183959.09, -183945.95, 0.00, 0.00, 0.00
68, -178249.50, -181969.84, -183923.95, -183837.53, -183933.75, -183964.94, -183949.28, -183936.20, 0.03, -0.02, 0.98
69, -178466.73, -182264.19, -183994.66, -183908.05, -184004.38, -184035.52, -184019.83, -184006.75, 0.00, 0.00, 0.00
70, -178517.55, -182347.84, -184016.67, -183930.17, -184026.53, -184057.67, -184041.86, -184028.83, 0.00, 0.00, 0.00
71, -178315.81, -182076.05, -183952.33, -183865.94, -183962.25, -183993.42, -183977.73, -183964.75, 0.00, 0.00, 0.00
72, -178240.88, -181964.63, -183923.61, -183837.19, -183933.53, -183964.73, -183949.02, -183936.00, 0.00, 0.00, 0.00
73, -178438.81, -182230.44, -183988.16, -183901.63, -183997.97, -184029.19, -184013.44, -184000.36, 0.00, 0.00, 0.00
74, -178544.59, -182385.98, -184027.47, -183940.81, -184037.22, -184068.48, -184052.58, -184039.50, 0.00, 0.00, 0.00
75, -178368.02, -182151.00, -183973.45, -183886.81, -183983.22, -184014.47, -183998.59, -183985.61, 0.00, 0.00, 0.00
76, -178245.66, -181974.64, -183929.64, -183843.06, -183939.47, -183970.66, -183954.94, -183941.94, 0.00, 0.00, 0.00
77, -178412.84, -182195.52, -183981.47, -183894.88, -183991.38, -184022.44, -184006.73, -183993.77, 0.00, 0.00, 0.00
78, -178565.48, -182413.78, -184035.41, -183948.91, -184045.38, -184076.48, -184060.66, -184047.66, 0.03, -0.03, 0.98
79, -178423.95, -182229.05, -183992.94, -183906.45, -184002.89, -184033.86, -184018.22, -184005.19, 0.00, 0.00, 0.00
80, -178256.45, -181995.66, -183937.22, -183850.63, -183947.11, -183978.20, -183962.50, -183949.53, 0.00, 0.00, 0.00
81, -178381.69, -182159.05, -183975.09, -183888.56, -183984.94, -184016.11, -184000.34, -183987.39, 0.00, 0.00, 0.00
82, -178571.36, -182425.41, -184040.72, -183954.11, -184050.53, -184081.73, -184065.94, -184053.05, 0.00, 0.00, 0.00
83, -178475.03, -182303.91, -184016.20, -183929.58, -184026.02, -184057.20, -184041.38, -184028.45, 0.00, 0.00, 0.00
84, -178280.19, -182032.47, -183951.14, -183864.61, -183961.00, -183992.11, -183976.36, -183963.45, 0.00, 0.00, 0.00
85, -178357.69, -182127.03, -183972.36, -183885.89, -183982.25, -184013.33, -183997.59, -183984.58, 0.00, 0.00, 0.00
86, -178570.67, -182422.77, -184046.25, -183959.64, -184055.95, -184087.16, -184071.30, -184058.34, 0.00, 0.00, 0.00
87, -178525.05, -182373.55, -184037.89, -183951.30, -184047.55, -184078.86, -184063.06, -184050.00, 0.00, 0.00, 0.00
88, -178312.17, -182082.72, -183965.63, -183879.09, -183975.33, -184006.58, -183991.02, -183977.97, 0.04, -0.03, 0.99
89, -178335.52, -182103.81, -183966.73, -183880.17, -183976.44, -184007.63, -183992.09, -183979.02, 0.00, 0.00, 0.00
90, -178557.03, -182407.13, -184040.66, -183954.09, -184050.38, -184081.52, -184065.88, -184052.81, 0.00, 0.00, 0.00
91, -178567.56, -182433.03, -184050.83, -183964.17, -184060.48, -184091.69, -184075.97, -184062.92, 0.00, 0.00, 0.00
92, -178357.91, -182146.19, -183984.16, -183897.55, -183993.77, -184024.91, -184009.33, -183996.16, 0.00, 0.00, 0.00
93, -178326.33, -182092.75, -183966.97, -183880.47, -183976.69, -184007.88, -183992.27, -183979.11, 0.00, 0.00, 0.00
94, -178539.06, -182383.66, -184037.33, -183950.73, -184047.09, -184078.25, -184062.55, -184049.48, 0.00, 0.00, 0.00
95, -178603.86, -182484.91, -184066.39, -183979.89, -184076.16, -184107.27, -184091.53, -184078.55, 0.00, 0.00, 0.00
96, -178405.97, -182219.22, -184005.28, -183918.81, -184015.00, -184046.14, -184030.52, -184017.44, 0.00, 0.00, 0.00
97, -178318.67, -182090.67, -183971.38, -183884.94, -183981.14, -184012.27, -183996.63, -183983.48, 0.00, 0.00, 0.00
98, -178509.66, -182347.30, -184033.31, -183946.78, -184042.98, -184074.25, -184058.50, -184045.47, 0.03, -0.03, 0.99
99, -178628.11, -182520.58, -184078.02, -183991.38, -184087.67, -184118.88, -184103.05, -184090.17, 0.00, 0.00, 0.00
100, -178460.61, -182296.44, -184026.11, -183939.56, -184035.78, -184066.97, -184051.16, -184038.16, 0.00, 0.00, 0.00
101, -178326.44, -182103.25, -183978.56, -183892.09, -183988.27, -184019.47, -184003.73, -183990.70, 0.00, 0.00, 0.00
102, -178483.28, -182312.38, -184027.25, -183940.70, -184036.97, -184068.17, -184052.44, -184039.50, 0.00, 0.00, 0.00
103, -178644.41, -182544.48, -184086.09, -183999.42, -184095.72, -184127.00, -184111.14, -184098.19, 0.00, 0.00, 0.00
104, -178511.63, -182372.73, -184048.89, -183962.22, -184058.63, -184089.83, -184073.97, -184061.00, 0.00, 0.00, 0.00
105, -178337.86, -182128.31, -183989.66, -183903.03, -183999.42, -184030.67, -184014.81, -184001.81, 0.00, 0.00, 0.00
106, -178452.75, -182276.86, -184021.81, -183935.20, -184031.56, -184062.73, -184046.92, -184033.91, 0.00, 0.00, 0.00
107, -178649.47, -182553.00, -184090.80, -184004.09, -184100.50, -184131.67, -184115.81, -184102.80, 0.00, 0.00, 0.00
108, -178566.05, -182449.06, -184066.97, -183980.39, -184076.69, -184107.94, -184092.16, -184079.14, 0.03, -0.03, 0.99
109, -178366.80, -182170.83, -183997.61, -183911.08, -184007.36, -184038.58, -184022.86, -184009.83, 0.00, 0.00, 0.00
110, -178431.44, -182248.67, -184015.02, -183928.41, -184024.81, -184055.92, -184040.25, -184027.20, 0.00, 0.00, 0.00
111, -178647.11, -182548.80, -184088.33, -184001.66, -184098.06, -184129.33, -184113.55, -184100.38, 0.00, 0.00, 0.00
112, -178613.05, -182514.77, -184085.47, -183998.91, -184095.20, -184126.42, -184110.80, -184097.55, 0.00, 0.00, 0.00
113, -178400.23, -182221.83, -184017.19, -183930.70, -184026.98, -184058.14, -184042.52, -184029.38, 0.00, 0.00, 0.00
114, -178410.36, -182224.77, -184014.95, -183928.45, -184024.75, -184056.02, -184040.30, -184027.25, 0.00, 0.00, 0.00
115, -178631.09, -182527.67, -184085.66, -183999.05, -184095.44, -184126.59, -184110.94, -184097.91, 0.00, 0.00, 0.00
116, -178655.50, -182572.86, -184099.42, -184012.72, -184109.17, -184140.42, -184124.64, -184111.64, 0.00, 0.00, 0.00
117, -178446.20, -182288.13, -184031.61, -183944.81, -184041.13, -184072.47, -184056.80, -184043.83, 0.00, 0.00, 0.00
118, -178399.89, -182215.02, -184011.72, -183925.09, -184021.33, -184052.64, -184036.92, -184023.97, 0.03, -0.02, 0.99
119, -178608.98, -182499.06, -184082.14, -183995.55, -184091.89, -184123.11, -184107.27, -184094.30, 0.00, 0.00, 0.00
120, -178686.56, -182618.63, -184114.98, -184028.30, -184124.66, -184155.86, -184140.08, -184127.05, 0.00, 0.00, 0.00
121, -178494.47, -182360.59, -184053.28, -183966.73, -184063.02, -184094.30, -184078.64, -184065.42, 0.00, 0.00, 0.00
122, -178395.44, -182215.27, -184017.08, -183930.58, -184026.73, -184058.20, -184042.38, -184029.30, 0.00, 0.00, 0.00
123, -178579.70, -182462.67, -184076.17, -183989.63, -184085.86, -184117.28, -184101.33, -184088.30, 0.00, 0.00, 0.00
124, -178710.27, -182654.00, -184123.98, -184037.47, -184133.73, -184165.09, -184149.25, -184136.17, 0.00, 0.00, 0.00
125, -178549.14, -182440.91, -184075.19, -183988.73, -184084.95, -184116.28, -184100.56, -184087.59, 0.00, 0.00, 0.00
126, -178403.97, -182233.91, -184023.52, -183937.13, -184033.28, -184064.53, -184048.86, -184035.86, 0.00, 0.00, 0.00
127, -178551.56, -182428.97, -184070.94, -183984.44, -184080.64, -184111.95, -184096.11, -184083.11, 0.00, 0.00, 0.00
128, -178722.33, -182672.64, -184132.69, -184046.00, -184142.38, -184173.58, -184157.77, -184144.75, 0.03, -0.03, 0.99
129, -178601.83, -182515.67, -184097.09, -184010.63, -184106.94, -184138.14, -184122.41, -184109.30, 0.00, 0.00, 0.00
130, -178420.53, -182260.95, -184032.41, -183945.95, -184042.20, -184073.41, -184057.80, -184044.69, 0.00, 0.00, 0.00
131, -178523.69, -182393.09, -184061.41, -183974.78, -184071.11, -184102.38, -184086.70, -184073.47, 0.00, 0.00, 0.00
132, -178727.05, -182679.69, -184132.59, -184045.91, -184142.31, -184173.61, -184157.80, -184144.66, 0.00, 0.00, 0.00
133, -178654.42, -182592.11, -184114.63, -184027.81, -184124.30, -184155.56, -184139.78, -184126.67, 0.00, 0.00, 0.00
134, -178450.05, -182306.92, -184046.81, -183960.14, -184056.53, -184087.75, -184072.06, -184058.98, 0.00, 0.00, 0.00
135, -178502.45, -182366.78, -184060.59, -183973.92, -184070.34, -184101.52, -184085.88, -184072.84, 0.00, 0.00, 0.00
136, -178719.16, -182669.83, -184133.38, -184046.81, -184143.16, -184174.33, -184158.66, -184145.53, 0.00, 0.00, 0.00
137, -178698.88, -182657.20, -184133.91, -184047.31, -184143.70, -184174.95, -184159.13, -184146.05, 0.03, -0.03, 0.99
138, -178485.61, -182364.03, -184065.02, -183978.45, -184074.77, -184105.97, -184090.17, -184077.22, 0.00, 0.00, 0.00
139, -178482.78, -182348.14, -184058.81, -183972.17, -184068.48, -184099.75, -184083.97, -184070.98, 0.00, 0.00, 0.00
140, -178702.48, -182649.89, -184132.22, -184045.58, -184142.06, -184173.34, -184157.41, -184144.48, 0.00, 0.00, 0.00
141, -178739.47, -182713.64, -184149.22, -184062.66, -184158.97, -184190.28, -184174.39, -184161.47, 0.00, 0.00, 0.00
142, -178532.83, -182431.78, -184082.66, -183996.17, -184092.33, -184123.70, -184108.00, -184094.92, 0.00, 0.00, 0.00
143, -178473.89, -182340.03, -184060.00, -183973.38, -184069.61, -184100.94, -184085.25, -184072.11, 0.00, 0.00, 0.00
144, -178677.11, -182616.63, -184126.09, -184039.39, -184135.78, -184167.08, -184151.19, -184138.20, 0.00, 0.00, 0.00
145, -178767.92, -182754.61, -184162.36, -184075.61, -184172.05, -184203.41, -184187.52, -184174.48, 0.00, 0.00, 0.00
146, -178582.70, -182504.36, -184105.08, -184018.42, -184114.83, -184146.06, -184130.33, -184117.27, 0.00, 0.00, 0.00
147, -178473.22, -182342.31, -184065.31, -183978.81, -184075.14, -184106.33, -184090.72, -184077.56, 0.04, -0.03, 0.98
148, -178651.34, -182580.23, -184120.28, -184033.69, -184130.00, -184161.36, -184145.48, -184132.34, 0.00, 0.00, 0.00
149, -178791.86, -182786.64, -184171.42, -184084.73, -184181.11, -184212.45, -184196.50, -184183.33, 0.00, 0.00, 0.00
150, -178638.84, -182584.58, -184126.94, -184040.34, -184136.70, -184167.95, -184152.13, -184139.00, 0.00, 0.00, 0.00
151, -178483.25, -182362.05, -184073.88, -183987.34, -184083.63, -184114.83, -184099.25, -184086.03, 0.00, 0.00, 0.00
152, -178620.36, -182543.88, -184113.25, -184026.58, -184122.91, -184154.20, -184138.52, -184125.39, 0.00, 0.00, 0.00
153, -178800.47, -182802.95, -184176.73, -184090.03, -184186.55, -184217.86, -184201.97, -184188.89, 0.00, 0.00, 0.00
154, -178691.06, -182662.41, -184145.38, -184058.73, -184155.22, -184186.38, -184170.59, -184157.61, 0.00, 0.00, 0.00
155, -178502.83, -182396.02, -184080.75, -183994.25, -184090.56, -184121.91, -184106.06, -184093.08, 0.00, 0.00, 0.00
156, -178594.81, -182511.28, -184109.45, -184022.98, -184119.22, -184150.55, -184134.77, -184121.73, 0.00, 0.00, 0.00
157, -178802.75, -182804.73, -184181.39, -184094.64, -184191.08, -184222.27, -184206.52, -184193.41, 0.04, -0.03, 0.98
158, -178743.70, -182735.58, -184166.31, -184079.64, -184175.97, -184207.22, -184191.47, -184178.41, 0.00, 0.00, 0.00
159, -178535.20, -182444.23, -184096.09, -184009.33, -184105.55, -184136.89, -184121.22, -184108.11, 0.00, 0.00, 0.00
160, -178572.14, -182484.27, -184105.05, -184018.36, -184114.64, -184146.05, -184130.30, -184117.28, 0.00, 0.00, 0.00
161, -178791.38, -182790.03, -184179.84, -184093.19, -184189.56, -184220.92, -184204.98, -184191.98, 0.00, 0.00, 0.00
162, -178785.25, -182796.73, -184183.69, -184096.98, -184193.34, -184224.66, -184208.75, -184195.67, 0.00, 0.00, 0.00
163, -178573.22, -182503.70, -184114.05, -184027.45, -184123.78, -184155.06, -184139.23, -184126.22, 0.00, 0.00, 0.00
164, -178558.30, -182468.92, -184105.48, -184019.02, -184115.20, -184146.52, -184130.67, -184117.70, 0.00, 0.00, 0.00
165, -178776.08, -182766.97, -184175.17, -184088.67, -184184.88, -184216.19, -184200.36, -184187.22, 0.00, 0.00, 0.00
166, -178826.63, -182851.80, -184199.02, -184112.52, -184208.70, -184240.06, -184224.17, -184211.06, 0.00, 0.00, 0.00
167, -178623.53, -182575.55, -184135.59, -184049.00, -184145.27, -184176.56, -184160.64, -184147.72, 0.03, -0.03, 0.98
168, -178550.17, -182463.34, -184107.47, -184020.94, -184117.27, -184148.34, -184132.64, -184119.67, 0.00, 0.00, 0.00
169, -178748.48, -182732.55, -184171.44, -184084.77, -184181.14, -184212.28, -184196.52, -184183.48, 0.00, 0.00, 0.00
170, -178852.27, -182889.25, -184212.45, -184125.75, -184222.11, -184253.30, -184237.53, -184224.45, 0.00, 0.00, 0.00
171, -178675.19, -182650.83, -184155.48, -184068.86, -184165.16, -184196.41, -184180.72, -184167.69, 0.00, 0.00, 0.00
172, -178554.36, -182473.25, -184110.11, -184023.41, -184119.77, -184151.02, -184135.23, -184122.31, 0.00, 0.00, 0.00
173, -178722.47, -182697.66, -184163.80, -184077.03, -184173.42, -184204.72, -184188.89, -184175.97, 0.00, 0.00, 0.00
174, -178874.44, -182918.22, -184219.81, -184132.97, -184229.36, -184260.72, -184244.73, -184231.83, 0.00, 0.00, 0.00
175, -178731.42, -182730.75, -184177.34, -184090.69, -184187.06, -184218.27, -184202.42, -184189.52, 0.00, 0.00, 0.00
176, -178565.20, -182493.81, -184117.86, -184031.31, -184127.45, -184158.78, -184143.03, -184130.05, 0.00, 0.00, 0.00
177, -178691.38, -182659.25, -184154.78, -184068.20, -184164.36, -184195.75, -184179.83, -184166.88, 0.04, -0.02, 0.98
178, -178878.97, -182929.11, -184221.33, -184134.73, -184231.03, -184262.34, -184246.34, -184233.38, 0.00, 0.00, 0.00
179, -178780.91, -182806.16, -184195.17, -184108.70, -184204.92, -184236.17, -184220.25, -184207.38, 0.00, 0.00, 0.00
180, -178588.42, -182531.95, -184130.36, -184043.75, -184139.97, -184171.19, -184155.39, -184142.56, 0.00, 0.00, 0.00
181, -178667.45, -182630.02, -184151.61, -184064.98, -184161.17, -184192.42, -184176.61, -184163.70, 0.00, 0.00, 0.00
182, -178879.58, -182929.17, -184223.66, -184136.97, -184233.22, -184264.47, -184248.53, -184235.64, 0.00, 0.00, 0.00
183, -178832.41, -182878.34, -184215.69, -184129.02, -184225.28, -184256.64, -184240.70, -184227.67, 0.00, 0.00, 0.00
184, -178620.06, -182580.84, -184144.27, -184057.58, -184153.88, -184185.20, -184169.47, -184156.28, 0.00, 0.00, 0.00
185, -178643.94, -182602.45, -184147.83, -184061.27, -184157.45, -184188.78, -184173.00, -184160.06, 0.00, 0.00, 0.00
186, -178865.14, -182909.73, -184221.91, -184135.28, -184231.52, -184262.81, -184246.94, -184233.95, 0.00, 0.00, 0.00
187, -178874.13, -182937.33, -184229.58, -184142.97, -184239.28, -184270.50, -184254.70, -184241.63, 0.03, -0.03, 0.98
188, -178663.67, -182646.02, -184161.61, -184075.08, -184171.33, -184202.53, -184186.84, -184173.77, 0.00, 0.00, 0.00
189, -178633.03, -182591.34, -184149.44, -184062.86, -184159.06, -184190.33, -184174.55, -184161.61, 0.00, 0.00, 0.00
190, -178846.50, -182884.72, -184220.33, -184133.73, -184229.98, -184261.31, -184245.41, -184232.50, 0.00, 0.00, 0.00
191, -178911.67, -182987.56, -184245.89, -184159.34, -184255.58, -184286.94, -184270.97, -184258.09, 0.00, 0.00, 0.00
192, -178713.45, -182717.59, -184182.34, -184095.94, -184192.16, -184223.47, -184207.53, -184194.63, 0.00, 0.00, 0.00
193, -178628.11, -182588.27, -184150.83, -184064.42, -184160.67, -184191.95, -184176.05, -184163.06, 0.00, 0.00, 0.00
194, -178819.92, -182849.78, -184213.02, -184126.53, -184222.80, -184254.00, -184238.11, -184225.06, 0.00, 0.00, 0.00
195, -178935.92, -183025.86, -184258.05, -184171.47, -184267.86, -184298.98, -184283.02, -184270.05, 0.00, 0.00, 0.00
196, -178767.39, -182798.75, -184205.55, -184118.94, -184215.36, -184246.47, -184230.58, -184217.73, 0.00, 0.00, 0.00
197, -178635.05, -182603.17, -184157.27, -184070.67, -184167.02, -184198.13, -184182.39, -184169.47, 0.03, -0.03, 0.98
198, -178793.75, -182814.86, -184207.25, -184120.75, -184217.06, -184248.19, -184232.44, -184219.42, 0.00, 0.00, 0.00
199, -178953.95, -183049.92, -184266.67, -184180.06, -184276.47, -184307.66, -184291.72, -184278.75, 0.00, 0.00, 0.00
200, -178820.05, -182876.63, -184224.39, -184137.75, -184234.05, -184265.30, -184249.45, -184236.48, 0.00, 0.00, 0.00
201, -178646.52, -182628.98, -184163.92, -184077.30, -184173.55, -184204.77, -184188.97, -184176.00, 0.00, 0.00, 0.00
202, -178762.47, -182778.77, -184200.09, -184113.53, -184209.81, -184240.94, -184225.11, -184212.16, 0.00, 0.00, 0.00
203, -178957.77, -183058.08, -184270.25, -184183.64, -184280.00, -184311.19, -184295.17, -184282.28, 0.00, 0.00, 0.00
204, -178872.88, -182953.33, -184246.14, -184159.45, -184255.86, -184287.09, -184271.17, -184258.20, 0.00, 0.00, 0.00
205, -178673.84, -182671.06, -184178.17, -184091.38, -184187.80, -184218.95, -184203.20, -184190.22, 0.00, 0.00, 0.00
206, -178739.77, -182750.56, -184195.63, -184108.86, -184205.19, -184236.42, -184220.72, -184207.58, 0.00, 0.00, 0.00
207, -178954.78, -183053.66, -184270.44, -184183.64, -184280.00, -184311.16, -184295.31, -184282.33, 0.03, -0.03, 0.97
208, -178920.20, -183020.50, -184266.30, -184179.59, -184275.91, -184307.09, -184291.27, -184278.30, 0.00, 0.00, 0.00
209, -178707.36, -182723.36, -184195.83, -184109.22, -184205.44, -184236.69, -184220.88, -184207.92, 0.00, 0.00, 0.00
210, -178718.31, -182726.75, -184194.42, -184107.83, -184204.09, -184235.39, -184219.56, -184206.59, 0.00, 0.00, 0.00
211, -178939.13, -183033.69, -184266.19, -184179.58, -184275.91, -184307.09, -184291.28, -184278.30, 0.00, 0.00, 0.00
212, -178962.14, -183081.39, -184279.20, -184192.47, -184288.88, -184320.02, -184304.23, -184291.22, 0.00, 0.00, 0.00
213, -178753.08, -182793.13, -184211.66, -184124.98, -184221.38, -184252.47, -184236.80, -184223.77, 0.00, 0.00, 0.00
214, -178709.13, -182717.59, -184193.23, -184106.66, -184203.02, -184234.16, -184218.44, -184205.39, 0.00, 0.00, 0.00
215, -178919.09, -183004.50, -184261.92, -184175.17, -184271.69, -184302.84, -184287.05, -184273.92, 0.00, 0.00, 0.00
216, -178994.08, -183125.83, -184293.45, -184206.73, -184303.30, -184334.39, -184318.56, -184305.44, 0.04, -0.03, 0.97
217, -178801.25, -182864.75, -184233.44, -184146.78, -184243.14, -184274.28, -184258.55, -184245.48, 0.00, 0.00, 0.00
218, -178704.09, -182716.83, -184197.67, -184111.00, -184207.31, -184238.52, -184222.83, -184209.86, 0.00, 0.00, 0.00
219, -178889.94, -182967.19, -184256.89, -184170.14, -184266.45, -184297.66, -184281.91, -184268.95, 0.00, 0.00, 0.00
220, -179019.78, -183161.08, -184303.34, -184216.52, -184312.83, -184344.13, -184328.22, -184315.23, 0.00, 0.00, 0.00
221, -178858.20, -182946.94, -184253.63, -184166.83, -184263.19, -184294.42, -184278.53, -184265.63, 0.00, 0.00, 0.00
222, -178713.72, -182735.97, -184202.86, -184116.16, -184212.45, -184243.67, -184227.78, -184214.94, 0.00, 0.00, 0.00
223, -178862.59, -182933.23, -184248.91, -184162.09, -184258.44, -184289.66, -184273.83, -184260.83, 0.00, 0.00, 0.00
224, -179031.72, -183180.16, -184309.50, -184222.73, -184319.00, -184350.30, -184334.41, -184321.39, 0.00, 0.00, 0.00
225, -178908.72, -183023.31, -184274.41, -184187.73, -184283.91, -184315.16, -184299.33, -184286.34, 0.00, 0.00, 0.00
226, -178728.03, -182764.55, -184212.88, -184126.33, -184222.36, -184253.72, -184237.84, -184225.02, 0.03, -0.03, 0.98
227, -178832.55, -182897.50, -184243.39, -184156.86, -184252.94, -184284.20, -184268.36, -184255.44, 0.00, 0.00, 0.00
228, -179036.06, -183185.86, -184313.31, -184226.73, -184322.89, -184354.14, -184338.23, -184325.20, 0.00, 0.00, 0.00
229, -178963.06, -183099.72, -184294.58, -184208.03, -184304.09, -184335.39, -184319.55, -184306.58, 0.00, 0.00, 0.00
230, -178759.05, -182812.03, -184224.86, -184138.27, -184234.38, -184265.70, -184249.92, -184237.02, 0.00, 0.00, 0.00
231, -178811.63, -182872.22, -184237.94, -184151.20, -184247.39, -184278.64, -184262.83, -184250.09, 0.00, 0.00, 0.00
232, -179028.30, -183176.77, -184313.80, -184227.08, -184323.31, -184354.59, -184338.66, -184325.86, 0.00, 0.00, 0.00
233, -179007.22, -183164.06, -184312.64, -184225.95, -184322.22, -184353.53, -184337.53, -184324.70, 0.00, 0.00, 0.00
234, -178794.50, -182868.22, -184243.55, -184157.09, -184253.27, -184284.36, -184268.64, -184255.70, 0.00, 0.00, 0.00
235, -178792.89, -182851.48, -184239.52, -184152.94, -184249.09, -184280.30, -184264.58, -184251.66, 0.00, 0.00, 0.00
236, -179013.44, -183155.22, -184310.91, -184224.13, -184320.33, -184351.66, -184335.81, -184323.00, 0.04, -0.03, 0.97
237, -179048.73, -183221.05, -184327.81, -184241.16, -184337.38, -184368.63, -184352.80, -184339.84, 0.00, 0.00, 0.00
238, -178842.06, -182938.66, -184261.52, -184174.84, -184271.03, -184302.33, -184286.50, -184273.55, 0.00, 0.00, 0.00
239, -178785.09, -182845.58, -184238.67, -184151.92, -184248.17, -184279.47, -184263.69, -184250.70, 0.00, 0.00, 0.00
240, -178988.19, -183122.98, -184305.42, -184218.64, -184314.95, -184346.14, -184330.34, -184317.38, 0.00, 0.00, 0.00
241, -179076.78, -183262.64, -184340.06, -184253.30, -184349.61, -184380.83, -184364.98, -184352.06, 0.00, 0.00, 0.00
242, -178890.48, -183011.70, -184284.42, -184197.67, -184293.92, -184325.20, -184309.45, -184296.56, 0.00, 0.00, 0.00
243, -178782.28, -182847.67, -184245.58, -184158.91, -184255.06, -184286.33, -184270.56, -184257.67, 0.00, 0.00, 0.00
244, -178962.25, -183086.58, -184301.44, -184214.72, -184310.95, -184342.30, -184326.34, -184313.44, 0.00, 0.00, 0.00
245, -179102.13, -183294.30, -184351.58, -184264.78, -184361.08, -184392.39, -184376.45, -184363.58, 0.00, 0.00, 0.00
246, -178948.19, -183092.31, -184305.89, -184219.23, -184315.31, -184346.66, -184330.83, -184318.00, 0.04, -0.03, 0.98
247, -178793.83, -182868.11, -184252.89, -184166.31, -184262.34, -184293.70, -184277.88, -184265.06, 0.00, 0.00, 0.00
248, -178931.56, -183049.19, -184294.70, -184208.13, -184304.19, -184335.59, -184319.66, -184306.78, 0.00, 0.00, 0.00
249, -179111.45, -183308.86, -184356.72, -184270.03, -184366.19, -184397.58, -184381.66, -184368.78, 0.00, 0.00, 0.00
