%OpenBCI Raw EEG Data
%
%Sample Rate = 250.0 Hz
%First Column = SampleIndex
%Other Columns = EEG data in microvolts followed by Accel Data (in G) interleaved with Aux Data
0, -8566.28, -8711.46, -9170.45, -8808.98, -154972.66, -160009.66, -162069.56, -161905.13, 0.03, -0.03, 0.98
1, -8614.67, -8755.67, -9213.70, -8850.46, -155016.16, -160052.44, -162114.97, -161950.63, 0.00, 0.00, 0.00
2, -8608.93, -8750.89, -9209.30, -8846.24, -155011.72, -160047.92, -162110.14, -161945.52, 0.00, 0.00, 0.00
3, -8560.11, -8706.47, -9165.82, -8804.62, -154968.13, -160005.09, -162064.67, -161899.77, 0.00, 0.00, 0.00
4, -8560.79, -8706.83, -9165.89, -8804.64, -154968.28, -160005.34, -162065.08, -161900.27, 0.00, 0.00, 0.00
5, -8607.81, -8749.50, -9207.47, -8844.43, -155010.06, -160046.42, -162108.80, -161944.38, 0.00, 0.00, 0.00
6, -8612.15, -8753.46, -9211.73, -8848.29, -155014.27, -160050.39, -162113.05, -161948.42, 0.00, 0.00, 0.00
7, -8562.77, -8708.31, -9167.59, -8806.07, -154970.20, -160007.02, -162066.91, -161902.00, 0.03, -0.05, 0.98
8, -8552.25, -8698.72, -9157.93, -8796.93, -154960.59, -159997.78, -162057.00, -161892.41, 0.00, 0.00, 0.00
9, -8599.50, -8741.92, -9200.00, -8837.34, -155002.95, -160039.41, -162101.34, -161937.02, 0.00, 0.00, 0.00
10, -8616.73, -8757.75, -9215.69, -8852.23, -155018.75, -160054.78, -162117.73, -161953.22, 0.00, 0.00, 0.00
11, -8572.39, -8717.31, -9176.46, -8814.46, -154979.30, -160015.95, -162076.36, -161911.58, 0.00, 0.00, 0.00
12, -8550.53, -8697.24, -9156.79, -8795.72, -154959.66, -159996.73, -162055.86, -161891.16, 0.00, 0.00, 0.00
13, -8590.54, -8733.81, -9192.31, -8829.77, -154995.31, -160032.00, -162093.39, -161928.92, 0.00, 0.00, 0.00
14, -8620.69, -8761.41, -9219.51, -8855.81, -155022.80, -160058.78, -162121.80, -161957.27, 0.00, 0.00, 0.00
15, -8582.33, -8726.39, -9185.43, -8822.99, -154988.58, -160025.00, -162085.92, -161921.11, 0.00, 0.00, 0.00
16, -8546.95, -8693.96, -9153.51, -8792.39, -154956.56, -159993.67, -162052.73, -161887.89, 0.00, 0.00, 0.00
17, -8578.11, -8722.16, -9180.84, -8818.63, -154984.13, -160020.94, -162081.77, -161917.23, 0.03, -0.05, 0.99
18, -8615.52, -8756.43, -9214.37, -8850.69, -155017.95, -160054.02, -162117.02, -161952.39, 0.00, 0.00, 0.00
19, -8588.19, -8731.57, -9190.37, -8827.53, -154993.78, -160030.14, -162091.53, -161926.69, 0.00, 0.00, 0.00
20, -8545.34, -8692.33, -9151.94, -8790.65, -154955.30, -159992.34, -162051.42, -161886.48, 0.00, 0.00, 0.00
21, -8569.10, -8714.14, -9172.98, -8811.04, -154976.59, -160013.42, -162073.56, -161909.14, 0.00, 0.00, 0.00
22, -8614.79, -8755.94, -9213.92, -8850.31, -155017.67, -160053.89, -162116.50, -161952.23, 0.00, 0.00, 0.00
23, -8597.06, -8739.69, -9198.32, -8835.09, -155001.94, -160038.13, -162100.05, -161935.39, 0.00, 0.00, 0.00
24, -8549.30, -8696.06, -9155.54, -8794.20, -154959.19, -159996.13, -162055.44, -161890.64, 0.00, 0.00, 0.00
25, -8561.57, -8707.37, -9166.36, -8804.84, -154970.27, -160007.28, -162067.05, -161902.38, 0.00, 0.00, 0.00
26, -8610.09, -8751.58, -9209.54, -8846.19, -155013.75, -160049.89, -162112.33, -161947.86, 0.03, -0.03, 0.98
27, -8604.33, -8746.19, -9204.63, -8841.25, -155008.72, -160044.78, -162107.03, -161942.30, 0.00, 0.00, 0.00
28, -8556.83, -8703.03, -9162.45, -8800.82, -154966.53, -160003.33, -162062.81, -161897.91, 0.00, 0.00, 0.00
29, -8552.65, -8699.01, -9158.20, -8796.75, -154962.38, -159999.30, -162058.69, -161894.03, 0.00, 0.00, 0.00
30, -8600.95, -8743.04, -9201.07, -8838.04, -155005.52, -160041.86, -162103.92, -161939.48, 0.00, 0.00, 0.00
31, -8611.14, -8752.47, -9210.71, -8847.20, -155015.20, -160051.22, -162113.73, -161949.11, 0.00, 0.00, 0.00
32, -8563.89, -8709.49, -9168.82, -8806.97, -154973.22, -160009.77, -162069.61, -161904.81, 0.00, 0.00, 0.00
33, -8546.88, -8693.84, -9153.11, -8791.99, -154957.58, -159994.50, -162053.47, -161888.88, 0.00, 0.00, 0.00
34, -8591.27, -8734.23, -9192.47, -8829.70, -154997.20, -160033.56, -162094.98, -161930.67, 0.00, 0.00, 0.00
35, -8611.93, -8752.96, -9211.09, -8847.45, -155015.84, -160051.77, -162114.47, -161949.94, 0.00, 0.00, 0.00
36, -8568.43, -8713.27, -9172.44, -8810.25, -154976.95, -160013.42, -162073.83, -161908.97, 0.03, -0.04, 0.98
37, -8543.69, -8690.85, -9150.29, -8789.13, -154954.92, -159991.91, -162050.77, -161885.98, 0.00, 0.00, 0.00
38, -8583.70, -8727.44, -9185.83, -8823.31, -154990.80, -160027.23, -162088.30, -161923.78, 0.00, 0.00, 0.00
39, -8615.73, -8756.68, -9214.69, -8850.87, -155019.69, -160055.56, -162118.47, -161953.89, 0.00, 0.00, 0.00
40, -8583.56, -8727.66, -9186.66, -8824.00, -154991.48, -160027.83, -162088.81, -161923.88, 0.00, 0.00, 0.00
41, -8547.91, -8695.25, -9154.76, -8793.56, -154959.70, -159996.70, -162055.53, -161890.59, 0.00, 0.00, 0.00
42, -8576.30, -8720.87, -9179.53, -8817.36, -154984.75, -160021.41, -162081.91, -161917.33, 0.00, 0.00, 0.00
43, -8615.90, -8756.90, -9214.82, -8851.09, -155020.20, -160056.19, -162118.94, -161954.36, 0.00, 0.00, 0.00
44, -8591.00, -8734.23, -9192.94, -8829.88, -154998.14, -160034.27, -162095.81, -161930.84, 0.00, 0.00, 0.00
45, -8545.34, -8692.46, -9152.01, -8790.56, -154957.06, -159994.03, -162053.03, -161887.94, 0.00, 0.00, 0.00
46, -8563.83, -8709.29, -9168.17, -8806.10, -154973.33, -160010.34, -162070.27, -161905.34, 0.02, -0.04, 0.98
47, -8610.38, -8751.76, -9209.70, -8845.95, -155015.13, -160051.31, -162113.91, -161949.11, 0.00, 0.00, 0.00
48, -8597.08, -8739.55, -9198.10, -8834.68, -155003.59, -160039.63, -162101.58, -161936.61, 0.00, 0.00, 0.00
49, -8546.97, -8693.64, -9153.20, -8791.70, -154958.67, -159995.48, -162054.64, -161889.52, 0.00, 0.00, 0.00
50, -8553.03, -8699.14, -9158.34, -8796.73, -154963.91, -160000.84, -162060.30, -161895.42, 0.00, 0.00, 0.00
51, -8602.72, -8744.40, -9202.64, -8839.31, -155008.50, -160044.75, -162106.83, -161942.09, 0.00, 0.00, 0.00
52, -8602.31, -8744.18, -9202.59, -8839.04, -155008.42, -160044.44, -162106.69, -161941.67, 0.00, 0.00, 0.00
53, -8554.24, -8700.44, -9159.95, -8798.09, -154965.58, -160002.36, -162061.91, -161896.67, 0.00, 0.00, 0.00
54, -8547.37, -8694.02, -9153.35, -8791.90, -154959.14, -159996.22, -162055.22, -161890.38, 0.00, 0.00, 0.00
55, -8595.30, -8737.65, -9196.00, -8832.83, -155002.13, -160038.42, -162099.97, -161935.41, 0.00, 0.00, 0.00
56, -8608.77, -8750.17, -9208.45, -8844.70, -155014.63, -160050.58, -162112.95, -161948.16, 0.03, -0.04, 0.98
57, -8562.30, -8707.73, -9167.14, -8805.04, -154973.17, -160009.72, -162069.61, -161904.50, 0.00, 0.00, 0.00
58, -8541.36, -8688.30, -9147.94, -8786.60, -154954.05, -159991.02, -162049.83, -161884.89, 0.00, 0.00, 0.00
59, -8584.10, -8727.17, -9185.83, -8822.93, -154992.20, -160028.53, -162089.70, -161925.08, 0.00, 0.00, 0.00
60, -8610.88, -8751.85, -9210.17, -8846.24, -155016.52, -160052.45, -162115.03, -161950.39, 0.00, 0.00, 0.00
61, -8569.19, -8713.76, -9173.13, -8810.50, -154979.33, -160015.89, -162076.27, -161911.16, 0.00, 0.00, 0.00
62, -8536.58, -8683.79, -9143.50, -8782.16, -154949.86, -159986.88, -162045.53, -161880.52, 0.00, 0.00, 0.00
63, -8574.13, -8717.98, -9176.82, -8814.34, -154983.45, -160020.11, -162080.70, -161915.98, 0.00, 0.00, 0.00
64, -8608.62, -8749.41, -9207.62, -8843.85, -155014.44, -160050.48, -162113.16, -161948.33, 0.00, 0.00, 0.00
65, -8576.81, -8720.33, -9179.50, -8816.69, -154986.19, -160022.55, -162083.52, -161918.41, 0.00, 0.00, 0.00
66, -8534.88, -8681.95, -9141.75, -8780.46, -154948.36, -159985.41, -162044.13, -161878.92, 0.03, -0.04, 0.99
67, -8562.62, -8707.26, -9166.29, -8804.15, -154973.11, -160009.92, -162070.02, -161905.17, 0.00, 0.00, 0.00
68, -8605.56, -8746.44, -9204.63, -8840.94, -155011.64, -160047.83, -162110.20, -161945.56, 0.00, 0.00, 0.00
69, -8584.32, -8727.06, -9186.03, -8822.90, -154993.05, -160029.36, -162090.64, -161925.67, 0.00, 0.00, 0.00
70, -8540.36, -8687.16, -9147.09, -8785.62, -154954.05, -159991.05, -162049.89, -161884.67, 0.00, 0.00, 0.00
71, -8555.49, -8701.02, -9160.35, -8798.47, -154967.56, -160004.52, -162064.02, -161899.06, 0.00, 0.00, 0.00
72, -8603.61, -8744.90, -9203.26, -8839.71, -155010.70, -160046.98, -162109.11, -161944.38, 0.00, 0.00, 0.00
73, -8594.85, -8736.96, -9195.66, -8832.27, -155003.13, -160039.30, -162101.14, -161936.06, 0.00, 0.00, 0.00
74, -8547.73, -8694.18, -9153.93, -8792.33, -154961.27, -159998.19, -162057.30, -161891.98, 0.00, 0.00, 0.00
75, -8550.21, -8696.35, -9155.92, -8794.34, -154963.36, -160000.44, -162059.55, -161894.59, 0.00, 0.00, 0.00
76, -8599.48, -8741.43, -9199.84, -8836.47, -155007.53, -160043.92, -162105.78, -161941.00, 0.03, -0.04, 0.99
77, -8603.57, -8745.19, -9203.87, -8840.16, -155011.56, -160047.66, -162109.78, -161944.86, 0.00, 0.00, 0.00
78, -8555.44, -8701.24, -9161.04, -8799.03, -154968.59, -160005.38, -162064.80, -161899.61, 0.00, 0.00, 0.00
79, -8543.62, -8690.40, -9150.02, -8788.62, -154957.75, -159994.77, -162053.58, -161888.58, 0.00, 0.00, 0.00
80, -8587.72, -8730.41, -9188.94, -8825.90, -154996.84, -160033.28, -162094.70, -161930.00, 0.00, 0.00, 0.00
81, -8604.62, -8745.83, -9204.31, -8840.47, -155012.36, -160048.36, -162110.73, -161945.73, 0.00, 0.00, 0.00
82, -8559.18, -8704.31, -9163.79, -8801.56, -154971.84, -160008.41, -162068.45, -161903.02, 0.00, 0.00, 0.00
83, -8537.05, -8684.03, -9143.83, -8782.54, -154951.83, -159989.06, -162047.75, -161882.39, 0.00, 0.00, 0.00
84, -8576.97, -8720.35, -9179.17, -8816.35, -154987.45, -160024.27, -162084.98, -161920.08, 0.00, 0.00, 0.00
85, -8607.52, -8748.50, -9206.82, -8843.04, -155015.31, -160051.50, -162113.75, -161948.89, 0.00, 0.00, 0.00
86, -8568.81, -8713.09, -9172.40, -8810.01, -154980.83, -160017.41, -162077.72, -161912.48, 0.02, -0.04, 0.99
87, -8534.79, -8682.00, -9141.89, -8780.75, -154950.27, -159987.50, -162045.97, -161880.64, 0.00, 0.00, 0.00
88, -8569.79, -8714.16, -9173.18, -8810.92, -154981.78, -160018.59, -162078.81, -161913.94, 0.00, 0.00, 0.00
89, -8609.49, -8750.51, -9208.90, -8845.17, -155017.67, -160053.69, -162116.13, -161951.33, 0.00, 0.00, 0.00
90, -8580.19, -8723.66, -9182.97, -8820.15, -154991.73, -160028.00, -162088.92, -161923.67, 0.00, 0.00, 0.00
91, -8538.32, -8685.49, -9145.46, -8784.37, -154954.22, -159991.25, -162049.89, -161884.45, 0.00, 0.00, 0.00
92, -8558.88, -8704.01, -9163.21, -8801.36, -154972.16, -160009.03, -162068.81, -161903.73, 0.00, 0.00, 0.00
93, -8603.12, -8744.27, -9202.68, -8839.18, -155011.83, -160048.08, -162110.33, -161945.38, 0.00, 0.00, 0.00
94, -8585.71, -8728.27, -9187.44, -8824.40, -154996.44, -160032.86, -162094.31, -161928.89, 0.00, 0.00, 0.00
95, -8540.53, -8687.25, -9147.36, -8786.16, -154956.30, -159993.36, -162052.25, -161886.73, 0.00, 0.00, 0.00
96, -8550.97, -8696.82, -9156.33, -8794.90, -154965.42, -160002.52, -162061.92, -161896.73, 0.03, -0.04, 0.99
97, -8597.13, -8738.62, -9197.21, -8834.01, -155006.48, -160042.86, -162104.97, -161939.97, 0.00, 0.00, 0.00
98, -8591.65, -8733.59, -9192.53, -8829.34, -155001.94, -160038.08, -162099.98, -161934.72, 0.00, 0.00, 0.00
99, -8541.63, -8688.08, -9148.05, -8786.60, -154957.42, -159994.31, -162053.42, -161887.83, 0.00, 0.00, 0.00
100, -8541.25, -8687.81, -9147.56, -8786.22, -154957.06, -159994.19, -162052.95, -161887.73, 0.00, 0.00, 0.00
101, -8590.42, -8732.60, -9191.33, -8828.31, -155001.11, -160037.55, -162099.11, -161934.06, 0.00, 0.00, 0.00
102, -8600.64, -8742.04, -9200.89, -8837.57, -155010.73, -160046.78, -162109.08, -161943.81, 0.00, 0.00, 0.00
103, -8553.81, -8699.46, -9159.34, -8797.65, -154969.13, -160005.78, -162065.45, -161899.92, 0.00, 0.00, 0.00
104, -8537.85, -8684.73, -9144.70, -8783.72, -154954.58, -159991.70, -162050.39, -161885.03, 0.00, 0.00, 0.00
105, -8583.00, -8725.76, -9184.71, -8822.26, -154994.91, -160031.42, -162092.52, -161927.50, 0.00, 0.00, 0.00
106, -8600.10, -8741.07, -9199.89, -8836.54, -155010.19, -160046.13, -162108.53, -161943.45, 0.03, -0.04, 0.99
107, -8554.68, -8699.39, -9159.32, -8797.33, -154969.58, -160006.03, -162066.06, -161900.61, 0.00, 0.00, 0.00
108, -8529.78, -8676.81, -9136.95, -8776.08, -154947.19, -159984.33, -162042.81, -161877.34, 0.00, 0.00, 0.00
109, -8570.87, -8714.48, -9173.63, -8811.42, -154984.11, -160020.64, -162081.39, -161916.19, 0.00, 0.00, 0.00
110, -8605.69, -8746.64, -9205.30, -8841.79, -155015.98, -160051.84, -162114.31, -161949.20, 0.00, 0.00, 0.00
111, -8569.23, -8713.20, -9172.84, -8810.43, -154983.39, -160019.75, -162080.27, -161914.80, 0.00, 0.00, 0.00
112, -8531.84, -8678.94, -9139.20, -8778.22, -154949.91, -159986.88, -162045.36, -161879.78, 0.00, 0.00, 0.00
113, -8562.66, -8707.05, -9166.47, -8804.49, -154977.25, -160014.08, -162074.14, -161908.86, 0.00, 0.00, 0.00
114, -8603.88, -8744.78, -9203.49, -8839.87, -155014.38, -160050.58, -162112.86, -161947.69, 0.00, 0.00, 0.00
115, -8578.40, -8721.56, -9180.96, -8818.19, -154991.86, -160028.27, -162089.19, -161923.75, 0.03, -0.04, 0.99
116, -8533.25, -8680.17, -9140.48, -8779.30, -154951.31, -159988.47, -162046.92, -161881.28, 0.00, 0.00, 0.00
117, -8553.77, -8698.90, -9158.56, -8796.86, -154969.69, -160006.75, -162066.14, -161900.83, 0.00, 0.00, 0.00
118, -8599.54, -8740.63, -9199.35, -8836.00, -155010.70, -160046.98, -162109.06, -161943.84, 0.00, 0.00, 0.00
119, -8583.56, -8725.96, -9185.32, -8822.14, -154996.52, -160032.88, -162094.22, -161928.77, 0.00, 0.00, 0.00
120, -8534.16, -8680.99, -9141.17, -8779.92, -154952.38, -159989.47, -162048.05, -161882.50, 0.00, 0.00, 0.00
121, -8540.78, -8687.00, -9146.76, -8785.44, -154958.06, -159995.33, -162054.20, -161888.88, 0.00, 0.00, 0.00
122, -8590.04, -8731.80, -9190.52, -8827.51, -155002.19, -160038.69, -162100.34, -161935.19, 0.00, 0.00, 0.00
123, -8590.36, -8732.18, -9191.17, -8827.93, -155003.00, -160039.17, -162100.83, -161935.50, 0.00, 0.00, 0.00
124, -8541.85, -8687.88, -9148.01, -8786.58, -154959.72, -159996.59, -162055.48, -161889.95, 0.00, 0.00, 0.00
125, -8537.23, -8683.83, -9143.83, -8782.69, -154955.61, -159992.75, -162051.30, -161885.95, 0.03, -0.04, 0.99
126, -8586.00, -8728.33, -9187.26, -8824.42, -154999.27, -160035.80, -162096.95, -161931.86, 0.00, 0.00, 0.00
127, -8599.83, -8741.07, -9200.02, -8836.67, -155012.09, -160048.30, -162110.25, -161944.89, 0.00, 0.00, 0.00
128, -8553.92, -8699.30, -9159.32, -8797.58, -154971.39, -160008.05, -162067.52, -161901.86, 0.00, 0.00, 0.00
129, -8536.85, -8683.79, -9143.96, -8782.94, -154956.17, -159993.20, -162051.58, -161886.06, 0.00, 0.00, 0.00
130, -8576.52, -8719.55, -9178.68, -8816.29, -154991.17, -160027.84, -162088.45, -161923.23, 0.00, 0.00, 0.00
131, -8601.20, -8742.19, -9200.92, -8837.68, -155013.52, -160049.70, -162111.78, -161946.42, 0.00, 0.00, 0.00
132, -8561.88, -8706.50, -9166.27, -8804.33, -154978.77, -160015.47, -162075.36, -161909.61, 0.00, 0.00, 0.00
133, -8531.79, -8678.94, -9139.16, -8778.36, -154951.67, -159988.91, -162047.08, -161881.59, 0.00, 0.00, 0.00
134, -8567.00, -8710.97, -9170.18, -8808.31, -154983.02, -160019.86, -162079.98, -161914.83, 0.00, 0.00, 0.00
135, -8600.01, -8740.98, -9199.55, -8836.36, -155012.61, -160048.81, -162110.88, -161945.69, 0.03, -0.05, 0.99
136, -8568.25, -8711.99, -9171.43, -8809.18, -154984.42, -160020.92, -162081.34, -161915.73, 0.00, 0.00, 0.00
137, -8529.87, -8677.10, -9137.21, -8776.46, -154950.27, -159987.33, -162045.66, -161879.84, 0.00, 0.00, 0.00
138, -8555.49, -8700.42, -9159.70, -8798.07, -154972.94, -160009.88, -162069.50, -161904.13, 0.00, 0.00, 0.00
139, -8597.69, -8738.77, -9197.34, -8834.17, -155010.77, -160047.02, -162109.06, -161943.77, 0.00, 0.00, 0.00
140, -8577.86, -8720.73, -9180.06, -8817.47, -154993.50, -160029.83, -162090.83, -161925.19, 0.00, 0.00, 0.00
141, -8531.68, -8678.53, -9138.87, -8777.93, -154952.17, -159989.27, -162047.66, -161881.86, 0.00, 0.00, 0.00
142, -8545.29, -8690.78, -9150.56, -8789.33, -154964.08, -160001.09, -162060.25, -161894.73, 0.00, 0.00, 0.00
143, -8593.26, -8734.50, -9193.45, -8830.37, -155007.20, -160043.42, -162105.27, -161940.08, 0.00, 0.00, 0.00
144, -8584.01, -8726.17, -9185.49, -8822.64, -154999.33, -160035.44, -162096.95, -161931.44, 0.00, 0.00, 0.00
145, -8531.42, -8678.00, -9138.20, -8777.24, -154951.98, -159988.84, -162047.61, -161881.86, 0.03, -0.05, 0.99
146, -8534.59, -8680.90, -9140.81, -8779.92, -154954.67, -159991.86, -162050.61, -161885.09, 0.00, 0.00, 0.00
147, -8586.36, -8728.29, -9187.15, -8824.56, -155001.34, -160037.80, -162099.25, -161933.94, 0.00, 0.00, 0.00
148, -8589.06, -8730.59, -9189.63, -8826.73, -155003.95, -160040.09, -162101.86, -161936.30, 0.00, 0.00, 0.00
149, -8538.52, -8684.37, -9144.46, -8783.32, -154958.69, -159995.44, -162054.61, -161888.88, 0.00, 0.00, 0.00
150, -8527.15, -8673.88, -9134.06, -8773.35, -154948.30, -159985.48, -162043.92, -161878.38, 0.00, 0.00, 0.00
151, -8573.62, -8716.24, -9175.23, -8812.96, -154989.98, -160026.48, -162087.47, -161922.17, 0.00, 0.00, 0.00
152, -8591.05, -8732.42, -9191.15, -8828.22, -155006.08, -160042.22, -162104.14, -161938.78, 0.00, 0.00, 0.00
153, -8545.99, -8691.30, -9151.21, -8789.69, -154966.00, -160002.70, -162062.19, -161896.42, 0.00, 0.00, 0.00
154, -8525.49, -8672.70, -9132.92, -8772.37, -154947.81, -159985.05, -162043.23, -161877.59, 0.00, 0.00, 0.00
155, -8566.80, -8710.30, -9169.56, -8807.62, -154984.67, -160021.34, -162081.80, -161916.50, 0.03, -0.05, 0.99
156, -8596.84, -8737.90, -9196.83, -8833.77, -155012.06, -160048.20, -162110.17, -161944.73, 0.00, 0.00, 0.00
157, -8560.34, -8704.82, -9164.59, -8802.94, -154979.91, -160016.45, -162076.42, -161910.67, 0.00, 0.00, 0.00
158, -8523.75, -8671.11, -9131.45, -8771.12, -154946.78, -159983.95, -162042.00, -161876.22, 0.00, 0.00, 0.00
159, -8556.78, -8701.24, -9160.73, -8799.12, -154976.31, -160013.14, -162072.97, -161907.53, 0.00, 0.00, 0.00
160, -8595.43, -8736.58, -9195.35, -8832.40, -155011.17, -160047.36, -162109.39, -161943.97, 0.00, 0.00, 0.00
161, -8566.44, -8710.05, -9169.71, -8807.64, -154985.41, -160021.86, -162082.42, -161916.64, 0.00, 0.00, 0.00
162, -8523.93, -8671.22, -9131.67, -8771.14, -154947.36, -159984.48, -162042.67, -161876.89, 0.00, 0.00, 0.00
163, -8545.94, -8691.30, -9150.96, -8789.80, -154966.94, -160003.92, -162063.22, -161897.84, 0.00, 0.00, 0.00
164, -8589.66, -8731.02, -9189.79, -8826.99, -155006.03, -160042.23, -162104.14, -161938.88, 0.00, 0.00, 0.00
165, -8574.60, -8717.43, -9176.89, -8814.43, -154993.06, -160029.30, -162090.28, -161924.86, 0.03, -0.04, 0.99
166, -8528.78, -8675.81, -9136.19, -8775.47, -154952.39, -159989.42, -162047.77, -161882.09, 0.00, 0.00, 0.00
167, -8538.63, -8684.79, -9144.48, -8783.65, -154961.05, -159998.00, -162056.98, -161891.56, 0.00, 0.00, 0.00
168, -8585.60, -8727.37, -9186.16, -8823.62, -155003.02, -160039.25, -162100.92, -161935.64, 0.00, 0.00, 0.00
169, -8582.20, -8724.38, -9183.62, -8820.94, -155000.38, -160036.52, -162098.02, -161932.39, 0.00, 0.00, 0.00
170, -8532.82, -8679.45, -9139.76, -8778.87, -154956.41, -159993.42, -162051.97, -161886.28, 0.00, 0.00, 0.00
171, -8529.89, -8676.70, -9136.77, -8776.03, -154953.64, -159990.81, -162049.22, -161883.70, 0.00, 0.00, 0.00
172, -8578.76, -8721.18, -9180.15, -8817.65, -154997.27, -160033.75, -162094.89, -161929.58, 0.00, 0.00, 0.00
173, -8587.94, -8729.56, -9188.78, -8825.79, -155005.91, -160042.03, -162103.73, -161938.25, 0.00, 0.00, 0.00
174, -8541.63, -8687.45, -9147.76, -8786.47, -154964.89, -160001.69, -162060.78, -161894.89, 0.00, 0.00, 0.00
175, -8527.77, -8674.85, -9135.02, -8774.45, -154952.30, -159989.47, -162047.80, -161881.98, 0.03, -0.04, 0.98
176, -8570.49, -8713.63, -9172.82, -8810.68, -154990.39, -160026.92, -162087.69, -161922.27, 0.00, 0.00, 0.00
177, -8594.20, -8735.60, -9194.64, -8831.69, -155012.30, -160048.47, -162110.42, -161944.94, 0.00, 0.00, 0.00
178, -8552.96, -8698.09, -9158.13, -8796.62, -154975.72, -160012.52, -162071.98, -161906.22, 0.00, 0.00, 0.00
179, -8525.98, -8673.35, -9133.73, -8773.26, -154951.41, -159988.69, -162046.66, -161880.88, 0.00, 0.00, 0.00
180, -8563.83, -8707.73, -9167.21, -8805.29, -154985.14, -160021.94, -162082.06, -161916.59, 0.00, 0.00, 0.00
181, -8594.20, -8735.35, -9194.39, -8831.31, -155012.53, -160048.63, -162110.63, -161945.11, 0.00, 0.00, 0.00
182, -8558.46, -8702.67, -9162.63, -8800.69, -154980.78, -160017.25, -162077.39, -161911.61, 0.00, 0.00, 0.00
183, -8519.97, -8667.42, -9127.87, -8767.45, -154946.13, -159983.36, -162041.30, -161875.50, 0.00, 0.00, 0.00
184, -8550.86, -8695.77, -9155.30, -8793.94, -154973.84, -160010.86, -162070.30, -161904.86, 0.00, 0.00, 0.00
185, -8592.48, -8733.83, -9192.69, -8829.70, -155011.48, -160047.69, -162109.53, -161944.11, 0.03, -0.03, 0.99
186, -8568.70, -8712.29, -9172.02, -8809.74, -154990.70, -160027.13, -162087.64, -161921.89, 0.00, 0.00, 0.00
187, -8523.32, -8670.71, -9131.34, -8770.69, -154949.97, -159987.13, -162045.25, -161879.36, 0.00, 0.00, 0.00
188, -8539.84, -8685.46, -9145.46, -8784.15, -154964.33, -160001.41, -162060.45, -161894.89, 0.00, 0.00, 0.00
189, -8586.36, -8727.84, -9186.95, -8823.89, -155006.09, -160042.48, -162104.03, -161938.66, 0.00, 0.00, 0.00
190, -8574.29, -8717.00, -9176.53, -8813.99, -154995.69, -160032.03, -162093.08, -161927.30, 0.00, 0.00, 0.00
191, -8525.33, -8672.34, -9132.81, -8771.99, -154951.94, -159989.05, -162047.42, -161881.39, 0.00, 0.00, 0.00
192, -8531.46, -8677.75, -9137.86, -8776.88, -154957.23, -159994.47, -162053.05, -161887.36, 0.00, 0.00, 0.00
193, -8580.83, -8722.88, -9181.94, -8819.10, -155001.52, -160038.06, -162099.34, -161933.89, 0.00, 0.00, 0.00
194, -8579.49, -8721.65, -9180.91, -8818.03, -155000.61, -160036.97, -162098.33, -161932.70, 0.03, -0.04, 0.99
195, -8529.69, -8676.21, -9136.59, -8775.52, -154956.34, -159993.38, -162051.92, -161885.98, 0.00, 0.00, 0.00
196, -8523.44, -8670.38, -9130.58, -8769.84, -154950.45, -159987.80, -162045.94, -161880.20, 0.00, 0.00, 0.00
197, -8572.21, -8715.08, -9174.14, -8811.68, -154994.28, -160030.92, -162091.84, -161926.41, 0.00, 0.00, 0.00
198, -8586.36, -8728.09, -9187.19, -8824.11, -155007.38, -160043.72, -162105.33, -161939.67, 0.00, 0.00, 0.00
199, -8540.27, -8686.07, -9146.13, -8784.79, -154966.38, -160003.33, -162062.34, -161896.50, 0.00, 0.00, 0.00
200, -8518.52, -8666.04, -9126.24, -8765.71, -154946.59, -159984.03, -162041.89, -161876.27, 0.00, 0.00, 0.00
201, -8560.49, -8704.10, -9163.25, -8801.25, -154983.91, -160020.78, -162081.13, -161915.72, 0.00, 0.00, 0.00
202, -8584.54, -8726.10, -9184.98, -8821.92, -155005.75, -160042.03, -162103.92, -161938.27, 0.00, 0.00, 0.00
203, -8543.22, -8688.35, -9148.21, -8786.45, -154969.00, -160005.72, -162065.39, -161899.36, 0.00, 0.00, 0.00
204, -8513.94, -8661.64, -9121.90, -8761.24, -154942.73, -159980.08, -162037.94, -161872.00, 0.03, -0.04, 0.99
205, -8551.75, -8696.19, -9155.54, -8793.73, -154976.64, -160013.70, -162073.41, -161907.78, 0.00, 0.00, 0.00
206, -8586.80, -8728.15, -9187.04, -8823.89, -155008.38, -160044.72, -162106.47, -161940.84, 0.00, 0.00, 0.00
207, -8553.59, -8697.82, -9157.60, -8795.50, -154978.86, -160015.55, -162075.67, -161909.64, 0.00, 0.00, 0.00
208, -8511.90, -8659.71, -9120.03, -8759.58, -154941.33, -159978.78, -162036.70, -161870.59, 0.00, 0.00, 0.00
209, -8537.58, -8682.96, -9142.56, -8781.15, -154964.11, -160001.25, -162060.56, -161894.80, 0.00, 0.00, 0.00
210, -8581.08, -8722.59, -9181.52, -8818.37, -155003.27, -160039.69, -162101.42, -161935.67, 0.00, 0.00, 0.00
211, -8560.11, -8703.46, -9163.10, -8800.64, -154984.84, -160021.41, -162082.13, -161916.14, 0.00, 0.00, 0.00
212, -8514.54, -8661.88, -9122.31, -8761.64, -154944.08, -159981.28, -162039.45, -161873.42, 0.00, 0.00, 0.00
213, -8529.16, -8675.07, -9134.98, -8773.82, -154956.88, -159994.19, -162052.98, -161887.16, 0.00, 0.00, 0.00
214, -8576.01, -8717.72, -9176.64, -8813.76, -154998.86, -160035.47, -162096.88, -161931.20, 0.03, -0.04, 0.98
215, -8567.40, -8710.05, -9169.42, -8806.63, -154991.69, -160028.11, -162089.13, -161923.30, 0.00, 0.00, 0.00
216, -8519.97, -8666.93, -9127.36, -8766.40, -154949.53, -159986.77, -162045.05, -161878.97, 0.00, 0.00, 0.00
217, -8524.71, -8671.29, -9131.45, -8770.53, -154953.80, -159991.25, -162049.56, -161883.78, 0.00, 0.00, 0.00
218, -8574.87, -8717.29, -9176.22, -8813.65, -154999.02, -160035.73, -162096.67, -161931.30, 0.00, 0.00, 0.00
219, -8578.51, -8720.58, -9179.73, -8816.91, -155002.61, -160039.05, -162100.30, -161934.56, 0.00, 0.00, 0.00
220, -8527.95, -8674.26, -9134.58, -8773.46, -154957.28, -159994.42, -162053.06, -161887.00, 0.00, 0.00, 0.00
221, -8516.37, -8663.45, -9123.74, -8763.09, -154946.58, -159984.08, -162042.08, -161876.22, 0.00, 0.00, 0.00
222, -8562.91, -8705.80, -9165.09, -8802.81, -154988.22, -160025.05, -162085.55, -161920.02, 0.00, 0.00, 0.00
223, -8578.69, -8720.22, -9179.39, -8816.35, -155002.56, -160039.02, -162100.56, -161934.83, 0.00, 0.00, 0.00
224, -8535.15, -8680.75, -9140.88, -8779.36, -154964.03, -160001.02, -162060.13, -161894.11, 0.04, -0.04, 0.98
225, -8514.43, -8662.06, -9122.28, -8761.77, -154945.63, -159983.08, -162040.98, -161875.06, 0.00, 0.00, 0.00
226, -8556.78, -8700.80, -9159.95, -8798.07, -154983.69, -160020.53, -162080.70, -161915.16, 0.00, 0.00, 0.00
227, -8585.48, -8726.99, -9185.83, -8822.84, -155009.72, -160046.11, -162107.77, -161942.16, 0.00, 0.00, 0.00
228, -8547.84, -8692.62, -9152.50, -8790.70, -154976.27, -160013.03, -162072.72, -161906.69, 0.00, 0.00, 0.00
229, -8514.96, -8662.66, -9123.00, -8762.51, -154946.72, -159984.19, -162041.80, -161876.00, 0.00, 0.00, 0.00
230, -8548.11, -8692.84, -9152.39, -8790.74, -154976.33, -160013.36, -162072.98, -161907.41, 0.00, 0.00, 0.00
231, -8587.65, -8729.07, -9188.02, -8824.89, -155012.25, -160048.59, -162110.31, -161944.64, 0.00, 0.00, 0.00
232, -8559.35, -8703.23, -9162.96, -8800.80, -154987.11, -160023.83, -162083.92, -161917.91, 0.00, 0.00, 0.00
233, -8515.77, -8663.36, -9123.83, -8763.20, -154947.97, -159985.33, -162043.17, -161877.19, 0.00, 0.00, 0.00
234, -8535.73, -8681.28, -9141.01, -8779.65, -154965.42, -160002.66, -162061.67, -161896.05, 0.03, -0.04, 0.98
235, -8581.19, -8722.66, -9181.56, -8818.48, -155006.19, -160042.70, -162104.23, -161938.61, 0.00, 0.00, 0.00
236, -8564.38, -8707.43, -9166.88, -8804.31, -154991.53, -160028.20, -162088.75, -161922.83, 0.00, 0.00, 0.00
237, -8515.17, -8662.46, -9122.84, -8761.97, -154947.52, -159984.94, -162042.86, -161876.78, 0.00, 0.00, 0.00
238, -8523.17, -8669.26, -9129.26, -8768.10, -154954.06, -159991.41, -162049.97, -161884.19, 0.00, 0.00, 0.00
239, -8573.50, -8715.17, -9174.34, -8811.21, -154999.33, -160035.94, -162097.19, -161931.56, 0.00, 0.00, 0.00
240, -8573.19, -8715.50, -9174.94, -8811.93, -155000.05, -160036.56, -162097.61, -161931.75, 0.00, 0.00, 0.00
241, -8524.04, -8670.76, -9131.07, -8769.97, -154956.23, -159993.45, -162051.75, -161885.72, 0.00, 0.00, 0.00
242, -8521.38, -8668.10, -9128.25, -8767.32, -154953.48, -159990.92, -162049.03, -161883.33, 0.00, 0.00, 0.00
243, -8569.64, -8712.08, -9171.08, -8808.40, -154996.63, -160033.41, -162094.17, -161928.69, 0.00, 0.00, 0.00
244, -8575.96, -8717.78, -9176.87, -8813.81, -155002.50, -160038.97, -162100.36, -161934.56, 0.03, -0.04, 0.99
245, -8527.35, -8673.46, -9133.75, -8772.34, -154959.16, -159996.39, -162055.13, -161889.03, 0.00, 0.00, 0.00
246, -8514.05, -8661.32, -9121.66, -8760.90, -154947.34, -159984.89, -162042.67, -161876.72, 0.00, 0.00, 0.00
247, -8558.42, -8701.58, -9160.86, -8798.50, -154986.83, -160023.75, -162083.94, -161918.41, 0.00, 0.00, 0.00
248, -8578.20, -8719.68, -9178.68, -8815.46, -155004.73, -160041.25, -162102.67, -161937.00, 0.00, 0.00, 0.00
249, -8534.83, -8680.10, -9140.16, -8778.36, -154966.11, -160003.14, -162062.41, -161896.25, 0.00, 0.00, 0.00
250, -8509.20, -8656.63, -9117.10, -8756.30, -154943.14, -159980.61, -162038.39, -161872.36, 0.00, 0.00, 0.00
251, -8549.72, -8693.64, -9153.15, -8791.08, -154979.39, -160016.48, -162076.27, -161910.64, 0.00, 0.00, 0.00
252, -8581.75, -8722.90, -9181.81, -8818.59, -155008.36, -160044.88, -162106.47, -161940.73, 0.00, 0.00, 0.00
253, -8546.46, -8690.89, -9150.65, -8788.68, -154977.25, -160014.09, -162073.81, -161907.66, 0.00, 0.00, 0.00
254, -8509.64, -8657.30, -9117.66, -8757.06, -154944.28, -159981.73, -162039.34, -161873.23, 0.03, -0.04, 0.98
255, -8538.63, -8683.54, -9143.03, -8781.55, -154969.91, -160007.11, -162066.25, -161900.52, 0.00, 0.00, 0.00
0, -8578.15, -8719.48, -9178.23, -8815.28, -155005.31, -160041.81, -162103.36, -161937.64, 0.00, 0.00, 0.00
1, -8552.16, -8695.77, -9155.30, -8793.09, -154982.25, -160019.02, -162079.25, -161913.11, 0.00, 0.00, 0.00
2, -8508.06, -8655.38, -9115.85, -8755.25, -154942.75, -159980.23, -162037.98, -161871.81, 0.00, 0.00, 0.00
3, -8527.10, -8672.70, -9132.39, -8771.32, -154959.63, -159997.06, -162055.75, -161889.83, 0.00, 0.00, 0.00
4, -8574.82, -8716.38, -9175.19, -8812.26, -155002.64, -160039.31, -162100.52, -161934.89, 0.00, 0.00, 0.00
5, -8560.79, -8703.48, -9162.85, -8800.19, -154990.39, -160027.05, -162087.61, -161921.63, 0.00, 0.00, 0.00
6, -8511.12, -8657.95, -9118.35, -8757.57, -154945.81, -159983.30, -162041.11, -161874.92, 0.00, 0.00, 0.00
7, -8517.96, -8664.07, -9124.00, -8763.20, -154951.77, -159989.41, -162047.55, -161881.59, 0.00, 0.00, 0.00
8, -8568.90, -8710.79, -9169.58, -8807.06, -154997.66, -160034.59, -162095.38, -161929.70, 0.03, -0.03, 0.99
9, -8569.08, -8711.17, -9170.23, -8807.50, -154998.30, -160035.02, -162095.88, -161930.05, 0.00, 0.00, 0.00
10, -8519.84, -8666.15, -9126.28, -8765.33, -154954.33, -159991.77, -162049.89, -161883.78, 0.00, 0.00, 0.00
11, -8514.72, -8661.46, -9121.46, -8760.88, -154949.70, -159987.34, -162045.09, -161879.17, 0.00, 0.00, 0.00
12, -8561.97, -8704.37, -9163.23, -8800.89, -154991.70, -160028.69, -162089.17, -161923.50, 0.00, 0.00, 0.00
13, -8574.35, -8715.71, -9174.47, -8811.64, -155003.11, -160039.77, -162101.02, -161935.17, 0.00, 0.00, 0.00
14, -8526.41, -8671.94, -9131.83, -8770.58, -154960.34, -159997.64, -162056.38, -161890.17, 0.00, 0.00, 0.00
15, -8508.91, -8656.03, -9116.05, -8755.58, -154944.67, -159982.36, -162040.02, -161873.92, 0.00, 0.00, 0.00
16, -8554.08, -8697.38, -9156.30, -8794.38, -154985.25, -160022.33, -162082.42, -161916.67, 0.00, 0.00, 0.00
17, -8579.52, -8720.67, -9179.32, -8816.40, -155008.41, -160045.06, -162106.45, -161940.73, 0.03, -0.04, 0.99
18, -8537.38, -8682.09, -9141.80, -8780.26, -154970.66, -160007.91, -162067.05, -161900.97, 0.00, 0.00, 0.00
19, -8508.50, -8655.76, -9115.98, -8755.67, -154944.86, -159982.69, -162040.13, -161874.02, 0.00, 0.00, 0.00
20, -8545.18, -8689.17, -9148.41, -8786.83, -154977.58, -160014.95, -162074.42, -161908.61, 0.00, 0.00, 0.00
21, -8579.92, -8720.98, -9179.62, -8816.62, -155009.03, -160045.72, -162107.11, -161941.42, 0.00, 0.00, 0.00
22, -8547.28, -8691.05, -9150.51, -8788.66, -154979.88, -160016.92, -162076.56, -161910.58, 0.00, 0.00, 0.00
23, -8506.72, -8653.83, -9114.01, -8753.70, -154943.31, -159981.17, -162038.52, -161872.48, 0.00, 0.00, 0.00
24, -8535.08, -8679.79, -9139.23, -8778.02, -154968.78, -160006.39, -162065.25, -161899.42, 0.00, 0.00, 0.00
25, -8577.12, -8718.12, -9176.75, -8813.90, -155006.53, -160043.33, -162104.66, -161938.92, 0.00, 0.00, 0.00
26, -8556.83, -8699.79, -9159.01, -8796.84, -154988.83, -160025.78, -162085.97, -161919.86, 0.00, 0.00, 0.00
27, -8511.79, -8658.78, -9118.93, -8758.49, -154948.67, -159986.36, -162044.05, -161877.78, 0.03, -0.04, 0.98
28, -8525.83, -8671.52, -9131.04, -8770.13, -154960.95, -159998.50, -162056.94, -161891.05, 0.00, 0.00, 0.00
29, -8571.92, -8713.36, -9171.95, -8809.31, -155002.08, -160038.91, -162099.94, -161934.31, 0.00, 0.00, 0.00
30, -8561.97, -8704.15, -9163.34, -8800.80, -154993.50, -160030.27, -162090.91, -161925.02, 0.00, 0.00, 0.00
31, -8512.39, -8658.91, -9119.20, -8758.44, -154949.16, -159986.72, -162044.70, -161878.45, 0.00, 0.00, 0.00
32, -8516.13, -8662.31, -9122.22, -8761.57, -154952.41, -159990.23, -162048.17, -161882.22, 0.00, 0.00, 0.00
33, -8565.97, -8707.75, -9166.50, -8804.08, -154997.09, -160034.22, -162094.89, -161929.16, 0.00, 0.00, 0.00
34, -8568.07, -8709.67, -9168.55, -8805.83, -154999.33, -160036.11, -162097.02, -161931.05, 0.00, 0.00, 0.00
35, -8518.34, -8664.23, -9124.18, -8763.27, -154954.78, -159992.31, -162050.61, -161884.36, 0.00, 0.00, 0.00
36, -8510.31, -8657.10, -9116.99, -8756.45, -154947.67, -159985.53, -162043.19, -161877.14, 0.00, 0.00, 0.00
37, -8558.88, -8701.40, -9160.28, -8797.91, -154991.22, -160028.38, -162088.63, -161922.83, 0.03, -0.04, 0.98
38, -8572.99, -8714.12, -9172.91, -8809.83, -155003.91, -160040.58, -162101.91, -161935.92, 0.00, 0.00, 0.00
39, -8529.56, -8674.69, -9134.60, -8773.10, -154965.44, -160002.86, -162061.66, -161895.33, 0.00, 0.00, 0.00
40, -8509.46, -8656.43, -9116.47, -8756.09, -154947.58, -159985.42, -162042.92, -161876.73, 0.00, 0.00, 0.00
41, -8551.62, -8694.92, -9153.89, -8792.10, -154985.22, -160022.61, -162082.28, -161916.50, 0.00, 0.00, 0.00
42, -8578.87, -8719.71, -9178.32, -8815.44, -155009.86, -160046.69, -162107.89, -161942.03, 0.00, 0.00, 0.00
43, -8539.39, -8683.63, -9143.16, -8781.62, -154974.73, -160011.94, -162071.13, -161904.88, 0.00, 0.00, 0.00
44, -8504.64, -8651.82, -9111.89, -8751.60, -154943.53, -159981.31, -162038.63, -161872.36, 0.00, 0.00, 0.00
45, -8537.38, -8681.57, -9140.68, -8779.23, -154972.50, -160010.02, -162069.08, -161903.27, 0.00, 0.00, 0.00
46, -8577.01, -8717.90, -9176.42, -8813.38, -155008.38, -160045.17, -162106.38, -161940.59, 0.00, 0.00, 0.00
47, -8546.99, -8690.38, -9149.84, -8787.63, -154981.69, -160018.75, -162078.50, -161912.36, 0.03, -0.04, 0.98
48, -8504.97, -8651.94, -9112.16, -8751.53, -154943.97, -159981.73, -162039.09, -161872.92, 0.00, 0.00, 0.00
49, -8529.87, -8674.73, -9134.20, -8772.99, -154966.25, -160003.91, -162062.34, -161896.55, 0.00, 0.00, 0.00
50, -8575.45, -8716.40, -9174.92, -8812.06, -155007.33, -160044.16, -162105.17, -161939.39, 0.00, 0.00, 0.00
51, -8557.34, -8699.75, -9158.98, -8796.48, -154991.27, -160028.14, -162088.31, -161922.17, 0.00, 0.00, 0.00
52, -8508.28, -8654.95, -9115.17, -8754.31, -154947.30, -159984.80, -162042.50, -161876.16, 0.00, 0.00, 0.00
53, -8518.92, -8664.56, -9124.25, -8763.20, -154956.64, -159994.25, -162052.47, -161886.38, 0.00, 0.00, 0.00
54, -8566.57, -8707.84, -9166.58, -8803.77, -154999.33, -160036.19, -162096.95, -161931.20, 0.00, 0.00, 0.00
55, -8559.73, -8701.44, -9160.57, -8797.80, -154993.31, -160030.03, -162090.64, -161924.66, 0.00, 0.00, 0.00
56, -8510.00, -8656.12, -9116.25, -8755.38, -154948.91, -159986.41, -162044.31, -161878.02, 0.00, 0.00, 0.00
57, -8508.28, -8654.51, -9114.28, -8753.73, -154947.11, -159984.95, -162042.66, -161876.61, 0.03, -0.03, 0.99
58, -8557.41, -8699.28, -9158.05, -8795.66, -154991.22, -160028.31, -162088.59, -161922.98, 0.00, 0.00, 0.00
59, -8565.21, -8706.29, -9165.20, -8802.38, -154998.53, -160035.27, -162096.08, -161930.16, 0.00, 0.00, 0.00
60, -8516.89, -8662.37, -9122.33, -8761.26, -154955.50, -159992.86, -162051.13, -161884.88, 0.00, 0.00, 0.00
61, -8500.41, -8646.93, -9106.88, -8746.62, -154940.30, -159978.06, -162035.44, -161869.34, 0.00, 0.00, 0.00
62, -8545.99, -8688.37, -9147.32, -8785.40, -154981.00, -160018.30, -162078.02, -161912.33, 0.00, 0.00, 0.00
63, -8564.47, -8705.20, -9163.97, -8801.20, -154997.77, -160034.58, -162095.52, -161929.58, 0.00, 0.00, 0.00
64, -8522.43, -8666.98, -9126.84, -8765.55, -154960.59, -159997.89, -162056.48, -161890.19, 0.00, 0.00, 0.00
65, -8498.02, -8644.83, -9105.00, -8744.85, -154938.80, -159976.66, -162033.80, -161867.55, 0.00, 0.00, 0.00
66, -8537.52, -8680.88, -9139.99, -8778.49, -154974.08, -160011.48, -162070.64, -161904.81, 0.00, 0.00, 0.00
67, -8570.13, -8710.72, -9169.31, -8806.61, -155003.55, -160040.36, -162101.38, -161935.52, 0.03, -0.03, 0.99
68, -8534.95, -8678.71, -9138.26, -8776.70, -154972.48, -160009.70, -162068.83, -161902.55, 0.00, 0.00, 0.00
69, -8495.56, -8642.50, -9102.73, -8742.46, -154936.86, -159974.64, -162031.86, -161865.56, 0.00, 0.00, 0.00
70, -8523.64, -8667.78, -9127.13, -8766.02, -154961.53, -159999.09, -162057.83, -161891.91, 0.00, 0.00, 0.00
71, -8562.24, -8702.70, -9161.42, -8798.81, -154995.97, -160032.94, -162093.97, -161928.08, 0.00, 0.00, 0.00
72, -8537.07, -8679.79, -9139.23, -8777.40, -154973.80, -160010.88, -162070.59, -161904.36, 0.00, 0.00, 0.00
73, -8491.94, -8638.52, -9098.77, -8738.55, -154933.34, -159971.11, -162028.34, -161862.00, 0.00, 0.00, 0.00
74, -8512.80, -8657.55, -9117.25, -8756.43, -154951.98, -159989.69, -162047.89, -161881.86, 0.00, 0.00, 0.00
75, -8559.06, -8699.70, -9158.56, -8796.06, -154993.58, -160030.45, -162091.30, -161925.44, 0.00, 0.00, 0.00
76, -8547.20, -8689.15, -9148.43, -8786.13, -154983.42, -160020.36, -162080.55, -161914.48, 0.00, 0.00, 0.00
77, -8498.94, -8645.27, -9105.59, -8744.94, -154940.47, -159978.22, -162035.66, -161869.39, 0.03, -0.03, 0.99
78, -8505.20, -8650.73, -9110.64, -8749.88, -154945.75, -159983.52, -162041.25, -161875.27, 0.00, 0.00, 0.00
79, -8553.97, -8695.14, -9154.00, -8791.57, -154989.36, -160026.39, -162086.78, -161921.00, 0.00, 0.00, 0.00
80, -8555.82, -8697.04, -9156.17, -8793.69, -154991.63, -160028.47, -162088.97, -161922.94, 0.00, 0.00, 0.00
81, -8507.86, -8653.46, -9113.57, -8752.90, -154948.97, -159986.66, -162044.33, -161878.06, 0.00, 0.00, 0.00
82, -8500.14, -8646.24, -9106.08, -8745.81, -154941.70, -159979.61, -162036.91, -161870.86, 0.00, 0.00, 0.00
83, -8547.55, -8689.42, -9148.23, -8786.22, -154984.11, -160021.34, -162081.34, -161915.47, 0.00, 0.00, 0.00
84, -8561.92, -8702.72, -9161.62, -8798.96, -154997.52, -160034.39, -162095.09, -161929.13, 0.00, 0.00, 0.00
85, -8514.56, -8659.42, -9119.53, -8758.44, -154955.23, -159992.75, -162050.81, -161884.56, 0.00, 0.00, 0.00
86, -8495.63, -8642.03, -9102.17, -8741.90, -154938.06, -159976.02, -162032.97, -161866.81, 0.00, 0.00, 0.00
87, -8541.41, -8683.92, -9142.98, -8781.20, -154979.22, -160016.52, -162075.98, -161910.16, 0.03, -0.03, 0.98
88, -8566.51, -8706.92, -9165.82, -8802.94, -155002.06, -160038.75, -162099.77, -161933.69, 0.00, 0.00, 0.00
89, -8523.84, -8667.89, -9127.67, -8766.33, -154963.88, -160001.16, -162059.84, -161893.55, 0.00, 0.00, 0.00
90, -8494.31, -8640.89, -9101.16, -8740.96, -154937.42, -159975.39, -162032.17, -161866.13, 0.00, 0.00, 0.00
91, -8533.76, -8677.10, -9136.45, -8775.00, -154972.84, -160010.48, -162069.25, -161903.42, 0.00, 0.00, 0.00
92, -8568.63, -8708.78, -9167.63, -8804.89, -155004.25, -160041.14, -162101.95, -161936.03, 0.00, 0.00, 0.00
93, -8535.57, -8678.65, -9138.40, -8776.61, -154974.92, -160012.09, -162071.23, -161904.94, 0.00, 0.00, 0.00
94, -8496.17, -8642.57, -9102.97, -8742.68, -154939.38, -159977.33, -162034.31, -161867.94, 0.00, 0.00, 0.00
95, -8524.64, -8668.65, -9128.25, -8767.11, -154964.95, -160002.61, -162060.94, -161895.05, 0.00, 0.00, 0.00
96, -8567.00, -8707.32, -9166.16, -8803.46, -155003.00, -160039.95, -162100.66, -161934.92, 0.00, 0.00, 0.00
97, -8544.49, -8686.83, -9146.27, -8784.17, -154983.06, -160020.20, -162079.84, -161913.73, 0.03, -0.04, 0.98
98, -8498.56, -8644.92, -9105.23, -8744.85, -154941.92, -159979.95, -162036.89, -161870.59, 0.00, 0.00, 0.00
99, -8513.58, -8658.44, -9118.19, -8757.32, -154955.14, -159992.94, -162050.75, -161884.83, 0.00, 0.00, 0.00
100, -8562.44, -8703.12, -9161.89, -8799.30, -154999.02, -160036.14, -162096.61, -161930.94, 0.00, 0.00, 0.00
101, -8554.88, -8696.53, -9155.65, -8793.42, -154992.94, -160030.02, -162090.06, -161924.06, 0.00, 0.00, 0.00
102, -8503.16, -8649.05, -9109.25, -8748.88, -154946.58, -159984.27, -162041.58, -161875.17, 0.00, 0.00, 0.00
103, -8505.60, -8651.09, -9110.91, -8750.55, -154948.41, -159986.22, -162043.69, -161877.45, 0.00, 0.00, 0.00
104, -8552.02, -8693.26, -9152.06, -8789.93, -154989.69, -160026.89, -162086.95, -161921.06, 0.00, 0.00, 0.00
105, -8553.74, -8694.76, -9153.75, -8791.41, -154991.33, -160028.34, -162088.72, -161922.48, 0.00, 0.00, 0.00
106, -8505.20, -8650.53, -9110.55, -8749.99, -154948.02, -159985.67, -162043.41, -161876.95, 0.04, -0.04, 0.98
107, -8496.48, -8642.53, -9102.50, -8742.42, -154940.19, -159978.14, -162035.23, -161868.98, 0.00, 0.00, 0.00
108, -8543.89, -8685.69, -9144.63, -8782.87, -154982.56, -160019.84, -162079.59, -161913.61, 0.00, 0.00, 0.00
109, -8557.92, -8698.34, -9157.20, -8794.67, -154995.16, -160032.00, -162092.70, -161926.63, 0.00, 0.00, 0.00
110, -8511.10, -8655.49, -9115.42, -8754.51, -154953.38, -159990.89, -162048.95, -161882.64, 0.00, 0.00, 0.00
111, -8490.71, -8636.98, -9097.16, -8737.10, -154935.16, -159973.23, -162030.05, -161863.77, 0.00, 0.00, 0.00
112, -8532.46, -8675.05, -9134.13, -8772.70, -154972.38, -160009.94, -162069.00, -161903.05, 0.00, 0.00, 0.00
113, -8558.08, -8698.47, -9157.11, -8794.61, -154995.39, -160032.36, -162093.08, -161927.14, 0.00, 0.00, 0.00
114, -8520.82, -8664.45, -9124.14, -8762.82, -154962.31, -159999.69, -162058.39, -161892.05, 0.00, 0.00, 0.00
115, -8489.97, -8636.49, -9096.58, -8736.54, -154934.83, -159972.77, -162029.69, -161863.27, 0.00, 0.00, 0.00
116, -8524.33, -8667.83, -9126.98, -8765.91, -154965.47, -160003.08, -162061.73, -161895.59, 0.03, -0.04, 0.98
117, -8564.32, -8704.48, -9163.08, -8800.55, -155001.63, -160038.69, -162099.47, -161933.38, 0.00, 0.00, 0.00
118, -8534.48, -8677.33, -9136.81, -8775.12, -154975.23, -160012.53, -162071.70, -161905.33, 0.00, 0.00, 0.00
119, -8490.94, -8637.32, -9097.52, -8737.52, -154936.03, -159974.02, -162030.73, -161864.31, 0.00, 0.00, 0.00
120, -8511.41, -8655.69, -9115.06, -8754.55, -154953.91, -159991.72, -162049.69, -161883.55, 0.00, 0.00, 0.00
121, -8553.65, -8694.05, -9152.61, -8790.36, -154991.59, -160028.67, -162089.28, -161923.16, 0.00, 0.00, 0.00
122, -8535.10, -8677.13, -9136.39, -8774.62, -154975.39, -160012.48, -162072.25, -161905.80, 0.00, 0.00, 0.00
123, -8486.04, -8632.18, -9092.33, -8732.29, -154931.22, -159969.19, -162026.19, -161859.70, 0.00, 0.00, 0.00
124, -8500.06, -8645.07, -9104.71, -8744.36, -154943.73, -159981.69, -162039.33, -161873.09, 0.00, 0.00, 0.00
125, -8551.00, -8691.74, -9150.40, -8788.30, -154989.73, -160026.92, -162087.30, -161921.17, 0.00, 0.00, 0.00
126, -8543.78, -8684.99, -9144.03, -8781.96, -154983.45, -160020.52, -162080.56, -161914.17, 0.02, -0.04, 0.98
127, -8494.49, -8640.11, -9100.11, -8739.87, -154939.47, -159977.33, -162034.66, -161868.00, 0.00, 0.00, 0.00
128, -8495.52, -8641.34, -9101.00, -8741.01, -154940.52, -159978.50, -162035.70, -161869.36, 0.00, 0.00, 0.00
129, -8545.43, -8686.83, -9145.44, -8783.79, -154985.25, -160022.48, -162082.34, -161916.23, 0.00, 0.00, 0.00
130, -8551.22, -8691.97, -9150.74, -8788.57, -154990.52, -160027.47, -162087.88, -161921.53, 0.00, 0.00, 0.00
131, -8502.74, -8647.73, -9107.60, -8747.11, -154947.36, -159984.89, -162042.67, -161876.00, 0.00, 0.00, 0.00
132, -8488.59, -8634.63, -9094.48, -8734.55, -154934.36, -159972.41, -162029.22, -161862.81, 0.00, 0.00, 0.00
133, -8535.71, -8677.71, -9136.52, -8774.98, -154976.63, -160014.08, -162073.41, -161907.27, 0.00, 0.00, 0.00
134, -8555.33, -8695.66, -9154.31, -8791.95, -154994.52, -160031.48, -162092.08, -161925.75, 0.00, 0.00, 0.00
135, -8513.38, -8657.48, -9117.16, -8756.34, -154957.20, -159994.67, -162053.00, -161886.44, 0.00, 0.00, 0.00
136, -8487.14, -8633.38, -9093.43, -8733.61, -154933.48, -159971.56, -162028.38, -161861.78, 0.03, -0.04, 0.98
137, -8524.22, -8667.00, -9126.02, -8764.83, -154966.34, -160004.00, -162062.91, -161896.63, 0.00, 0.00, 0.00
138, -8553.59, -8693.71, -9152.19, -8789.89, -154992.73, -160029.70, -162090.39, -161924.17, 0.00, 0.00, 0.00
139, -8519.21, -8662.51, -9121.88, -8760.77, -154962.31, -159999.69, -162058.39, -161891.84, 0.00, 0.00, 0.00
140, -8483.47, -8629.76, -9089.78, -8729.90, -154930.16, -159968.20, -162024.91, -161858.30, 0.00, 0.00, 0.00
141, -8514.76, -8658.33, -9117.46, -8756.54, -154958.14, -159995.88, -162054.19, -161887.89, 0.00, 0.00, 0.00
142, -8557.63, -8697.71, -9156.19, -8793.78, -154997.00, -160034.11, -162094.70, -161928.41, 0.00, 0.00, 0.00
143, -8533.94, -8676.23, -9135.52, -8773.91, -154976.28, -160013.56, -162072.84, -161906.31, 0.00, 0.00, 0.00
144, -8486.13, -8632.22, -9092.40, -8732.40, -154933.09, -159971.11, -162027.95, -161861.25, 0.00, 0.00, 0.00
145, -8503.61, -8647.93, -9107.46, -8746.89, -154948.30, -159986.38, -162044.16, -161877.72, 0.00, 0.00, 0.00
146, -8550.23, -8690.49, -9149.02, -8786.74, -154990.08, -160027.36, -162087.73, -161921.55, 0.02, -0.04, 0.99
147, -8538.30, -8679.83, -9138.91, -8777.02, -154979.92, -160017.16, -162076.81, -161910.42, 0.00, 0.00, 0.00
148, -8489.80, -8635.62, -9095.71, -8735.60, -154936.59, -159974.58, -162031.61, -161864.98, 0.00, 0.00, 0.00
149, -8498.00, -8643.04, -9102.66, -8742.37, -154943.73, -159981.83, -162039.17, -161872.83, 0.00, 0.00, 0.00
150, -8549.09, -8689.78, -9148.34, -8786.29, -154989.81, -160027.02, -162087.11, -161920.97, 0.00, 0.00, 0.00
151, -8546.97, -8687.88, -9146.76, -8784.62, -154988.05, -160025.20, -162085.30, -161918.84, 0.00, 0.00, 0.00
152, -8494.76, -8640.02, -9099.98, -8739.69, -154941.22, -159979.09, -162036.38, -161869.72, 0.00, 0.00, 0.00
153, -8490.87, -8636.60, -9096.38, -8736.40, -154937.80, -159975.92, -162032.75, -161866.39, 0.00, 0.00, 0.00
154, -8539.55, -8680.93, -9139.65, -8778.00, -154981.25, -160018.72, -162078.34, -161912.14, 0.00, 0.00, 0.00
155, -8551.11, -8691.50, -9150.25, -8787.97, -154991.89, -160029.08, -162089.34, -161922.98, 0.00, 0.00, 0.00
156, -8502.80, -8647.38, -9107.26, -8746.48, -154948.67, -159986.50, -162044.27, -161877.56, 0.02, -0.04, 0.98
157, -8484.25, -8630.21, -9090.19, -8730.28, -154931.73, -159969.97, -162026.63, -161860.13, 0.00, 0.00, 0.00
158, -8530.30, -8672.34, -9131.16, -8769.77, -154973.05, -160010.75, -162069.75, -161903.63, 0.00, 0.00, 0.00
159, -8557.01, -8697.13, -9155.65, -8793.22, -154997.63, -160034.81, -162095.27, -161928.97, 0.00, 0.00, 0.00
160, -8517.51, -8661.35, -9120.90, -8759.78, -154962.83, -160000.42, -162058.75, -161891.95, 0.00, 0.00, 0.00
161, -8487.76, -8634.05, -9093.96, -8733.92, -154935.94, -159974.20, -162030.78, -161864.00, 0.00, 0.00, 0.00
162, -8524.26, -8667.20, -9126.22, -8765.04, -154968.42, -160006.28, -162064.80, -161898.42, 0.00, 0.00, 0.00
163, -8557.23, -8697.11, -9155.63, -8793.20, -154998.05, -160035.28, -162095.72, -161929.36, 0.00, 0.00, 0.00
164, -8521.25, -8664.09, -9123.47, -8762.04, -154965.80, -160003.22, -162062.03, -161895.27, 0.00, 0.00, 0.00
165, -8480.50, -8626.68, -9086.79, -8726.75, -154928.97, -159967.20, -162023.77, -161856.95, 0.00, 0.00, 0.00
166, -8508.66, -8652.47, -9111.69, -8750.75, -154954.06, -159992.08, -162050.08, -161883.70, 0.02, -0.05, 0.98
167, -8552.09, -8692.21, -9150.65, -8788.15, -154993.20, -160030.59, -162090.91, -161924.56, 0.00, 0.00, 0.00
168, -8530.45, -8672.57, -9131.67, -8769.95, -154974.25, -160011.75, -162070.97, -161904.23, 0.00, 0.00, 0.00
169, -8482.93, -8629.02, -9088.98, -8728.94, -154931.53, -159969.73, -162026.52, -161859.58, 0.00, 0.00, 0.00
170, -8497.48, -8642.01, -9101.50, -8740.96, -154944.33, -159982.42, -162039.88, -161873.36, 0.00, 0.00, 0.00
171, -8545.56, -8685.80, -9144.30, -8782.09, -154987.38, -160024.81, -162084.83, -161918.53, 0.00, 0.00, 0.00
172, -8534.37, -8675.65, -9134.58, -8772.52, -154977.61, -160015.00, -162074.64, -161908.00, 0.00, 0.00, 0.00
173, -8488.21, -8633.94, -9093.78, -8733.56, -154936.78, -159974.92, -162031.80, -161864.95, 0.00, 0.00, 0.00
174, -8494.02, -8639.26, -9098.84, -8738.55, -154942.02, -159980.30, -162037.27, -161870.80, 0.00, 0.00, 0.00
175, -8545.09, -8686.07, -9144.57, -8782.38, -154987.91, -160025.55, -162085.17, -161918.98, 0.00, 0.00, 0.00
176, -8548.02, -8688.82, -9147.50, -8785.00, -154990.98, -160028.22, -162088.23, -161921.73, 0.03, -0.04, 0.98
177, -8495.83, -8640.98, -9100.67, -8740.02, -154944.13, -159982.06, -162039.39, -161872.48, 0.00, 0.00, 0.00
178, -8487.07, -8632.94, -9092.56, -8732.40, -154936.16, -159974.42, -162031.13, -161864.41, 0.00, 0.00, 0.00
179, -8535.71, -8677.30, -9135.81, -8774.04, -154979.64, -160017.30, -162076.66, -161910.20, 0.00, 0.00, 0.00
180, -8549.27, -8689.46, -9148.03, -8785.44, -154991.78, -160029.08, -162089.33, -161922.80, 0.00, 0.00, 0.00
181, -8503.70, -8647.93, -9107.58, -8746.55, -154951.16, -159989.06, -162046.86, -161879.94, 0.00, 0.00, 0.00
182, -8480.74, -8626.86, -9086.59, -8726.54, -154930.38, -159968.72, -162025.22, -161858.36, 0.00, 0.00, 0.00
183, -8522.65, -8665.12, -9123.74, -8762.38, -154967.97, -160005.67, -162064.48, -161898.08, 0.00, 0.00, 0.00
184, -8549.30, -8689.40, -9147.58, -8785.20, -154991.95, -160029.14, -162089.48, -161923.05, 0.00, 0.00, 0.00
185, -8512.59, -8656.09, -9115.33, -8754.15, -154959.52, -159997.20, -162055.44, -161888.67, 0.02, -0.04, 0.98
186, -8479.69, -8625.92, -9085.74, -8725.81, -154930.02, -159968.28, -162024.70, -161857.84, 0.00, 0.00, 0.00
187, -8511.99, -8655.13, -9114.06, -8752.99, -154958.42, -159996.44, -162054.59, -161888.11, 0.00, 0.00, 0.00
188, -8549.07, -8688.95, -9147.34, -8784.66, -154991.81, -160029.13, -162089.41, -161922.94, 0.00, 0.00, 0.00
189, -8521.07, -8663.45, -9122.64, -8760.92, -154967.19, -160004.69, -162063.42, -161896.67, 0.00, 0.00, 0.00
190, -8481.79, -8627.93, -9087.75, -8727.62, -154932.25, -159970.56, -162026.97, -161860.20, 0.00, 0.00, 0.00
191, -8505.08, -8649.10, -9108.18, -8747.40, -154952.81, -159990.94, -162048.67, -161882.09, 0.00, 0.00, 0.00
192, -8549.54, -8689.69, -9147.92, -8785.51, -154992.78, -160030.14, -162090.42, -161923.83, 0.00, 0.00, 0.00
193, -8528.89, -8670.67, -9129.57, -8767.67, -154974.47, -160011.91, -162071.22, -161904.34, 0.00, 0.00, 0.00
194, -8480.63, -8626.45, -9086.25, -8726.23, -154931.09, -159969.34, -162025.94, -161859.02, 0.00, 0.00, 0.00
195, -8494.42, -8639.15, -9098.37, -8738.08, -154943.50, -159981.73, -162038.92, -161872.25, 0.03, -0.04, 0.98
196, -8542.14, -8682.54, -9140.77, -8778.80, -154986.23, -160023.67, -162083.58, -161917.13, 0.00, 0.00, 0.00
197, -8537.20, -8678.31, -9136.92, -8774.89, -154982.16, -160019.70, -162079.25, -161912.55, 0.00, 0.00, 0.00
198, -8487.65, -8632.96, -9092.71, -8732.40, -154937.97, -159976.09, -162032.97, -161866.02, 0.00, 0.00, 0.00
199, -8483.40, -8628.71, -9088.15, -8728.04, -154933.75, -159971.88, -162028.70, -161861.97, 0.00, 0.00, 0.00
200, -8531.86, -8672.95, -9131.27, -8769.37, -154977.09, -160014.59, -162074.11, -161907.58, 0.00, 0.00, 0.00
201, -8541.63, -8682.13, -9140.63, -8778.33, -154986.52, -160023.75, -162083.69, -161916.98, 0.00, 0.00, 0.00
202, -8492.37, -8637.12, -9096.62, -8736.16, -154942.48, -159980.38, -162037.61, -161870.75, 0.00, 0.00, 0.00
203, -8478.67, -8624.51, -9084.04, -8724.09, -154929.97, -159968.20, -162024.61, -161857.94, 0.00, 0.00, 0.00
204, -8525.76, -8667.42, -9125.86, -8764.36, -154972.22, -160009.78, -162068.77, -161902.22, 0.00, 0.00, 0.00
205, -8543.78, -8683.70, -9142.04, -8779.76, -154988.36, -160025.66, -162085.81, -161919.19, 0.02, -0.03, 0.98
206, -8500.08, -8643.89, -9103.28, -8742.42, -154949.44, -159987.33, -162045.14, -161878.06, 0.00, 0.00, 0.00
207, -8476.32, -8622.41, -9082.05, -8722.19, -154928.27, -159966.63, -162022.98, -161856.03, 0.00, 0.00, 0.00
208, -8516.15, -8658.69, -9117.32, -8756.14, -154963.83, -160001.66, -162060.16, -161893.59, 0.00, 0.00, 0.00
209, -8544.83, -8684.52, -9142.82, -8780.37, -154989.47, -160026.75, -162086.95, -161920.33, 0.00, 0.00, 0.00
210, -8508.91, -8651.91, -9111.11, -8749.90, -154957.67, -159995.28, -162053.58, -161886.61, 0.00, 0.00, 0.00
211, -8471.51, -8617.58, -9077.40, -8717.63, -154923.98, -159962.27, -162018.48, -161851.53, 0.00, 0.00, 0.00
212, -8501.22, -8644.42, -9103.40, -8742.59, -154950.25, -159988.17, -162046.03, -161879.53, 0.00, 0.00, 0.00
213, -8543.78, -8683.45, -9141.68, -8779.34, -154988.73, -160025.98, -162086.08, -161919.66, 0.00, 0.00, 0.00
214, -8517.42, -8659.38, -9118.44, -8757.01, -154965.41, -160002.88, -162061.61, -161894.78, 0.00, 0.00, 0.00
215, -8472.76, -8618.54, -9078.41, -8718.72, -154925.34, -159963.63, -162019.88, -161852.95, 0.02, -0.04, 0.98
216, -8492.81, -8636.76, -9095.95, -8735.67, -154943.09, -159981.28, -162038.52, -161871.97, 0.00, 0.00, 0.00
217, -8539.84, -8679.72, -9138.04, -8776.03, -154985.45, -160022.92, -162082.75, -161916.41, 0.00, 0.00, 0.00
218, -8528.20, -8669.35, -9128.16, -8766.49, -154975.59, -160013.09, -162072.20, -161905.55, 0.00, 0.00, 0.00
219, -8479.78, -8625.11, -9084.89, -8725.03, -154932.36, -159970.56, -162026.94, -161860.08, 0.00, 0.00, 0.00
220, -8488.83, -8633.36, -9092.73, -8732.74, -154940.30, -159978.61, -162035.39, -161868.80, 0.00, 0.00, 0.00
221, -8537.56, -8677.66, -9136.01, -8774.22, -154983.89, -160021.47, -162080.94, -161914.48, 0.00, 0.00, 0.00
222, -8535.59, -8675.92, -9134.58, -8772.70, -154982.50, -160019.91, -162079.44, -161912.70, 0.00, 0.00, 0.00
223, -8485.08, -8629.85, -9089.63, -8729.45, -154937.34, -159975.52, -162032.34, -161865.41, 0.00, 0.00, 0.00
224, -8479.16, -8624.40, -9083.84, -8724.11, -154931.80, -159970.22, -162026.69, -161859.95, 0.00, 0.00, 0.00
225, -8528.11, -8669.01, -9127.38, -8766.04, -154975.66, -160013.58, -162072.56, -161906.05, 0.02, -0.04, 0.98
226, -8539.46, -8679.29, -9137.75, -8775.83, -154986.16, -160023.63, -162083.36, -161916.59, 0.00, 0.00, 0.00
227, -8491.70, -8635.69, -9095.17, -8734.99, -154943.53, -159981.63, -162038.77, -161871.80, 0.00, 0.00, 0.00
228, -8474.98, -8620.42, -9079.99, -8720.60, -154928.52, -159967.00, -162023.08, -161856.27, 0.00, 0.00, 0.00
229, -8517.45, -8658.93, -9117.52, -8756.56, -154966.34, -160004.20, -162062.64, -161896.19, 0.00, 0.00, 0.00
230, -8539.04, -8678.58, -9136.77, -8774.87, -154985.67, -160023.11, -162082.84, -161916.30, 0.00, 0.00, 0.00
231, -8498.11, -8641.32, -9100.54, -8740.02, -154949.33, -159987.23, -162044.86, -161877.81, 0.00, 0.00, 0.00
232, -8468.94, -8614.61, -9074.27, -8714.88, -154923.05, -159961.58, -162017.55, -161850.50, 0.00, 0.00, 0.00
233, -8506.83, -8649.30, -9107.96, -8747.38, -154957.08, -159995.13, -162053.14, -161886.42, 0.00, 0.00, 0.00
234, -8541.36, -8680.86, -9139.00, -8777.02, -154988.28, -160025.66, -162085.61, -161918.92, 0.00, 0.00, 0.00
235, -8506.65, -8649.10, -9108.16, -8747.15, -154957.31, -159995.02, -162053.30, -161886.19, 0.03, -0.04, 0.98
236, -8466.59, -8612.40, -9071.97, -8712.55, -154921.19, -159959.58, -162015.67, -161848.63, 0.00, 0.00, 0.00
237, -8494.15, -8637.36, -9096.22, -8736.02, -154945.66, -159983.81, -162041.31, -161874.64, 0.00, 0.00, 0.00
238, -8534.45, -8673.95, -9132.14, -8770.22, -154981.69, -160019.16, -162079.06, -161912.44, 0.00, 0.00, 0.00
239, -8513.06, -8654.51, -9113.45, -8752.14, -154963.00, -160000.59, -162059.34, -161892.39, 0.00, 0.00, 0.00
240, -8470.26, -8615.66, -9075.39, -8715.77, -154924.97, -159963.27, -162019.55, -161852.42, 0.00, 0.00, 0.00
241, -8486.24, -8630.14, -9089.20, -8729.16, -154938.91, -159977.28, -162034.23, -161867.44, 0.00, 0.00, 0.00
242, -8535.01, -8674.78, -9132.83, -8771.12, -154982.92, -160020.56, -162080.09, -161913.39, 0.00, 0.00, 0.00
243, -8523.97, -8664.65, -9123.22, -8761.68, -154973.27, -160010.80, -162069.94, -161902.98, 0.00, 0.00, 0.00
244, -8475.78, -8620.78, -9080.28, -8720.55, -154930.31, -159968.59, -162024.95, -161857.89, 0.00, 0.00, 0.00
245, -8480.25, -8624.87, -9083.99, -8724.15, -154934.11, -159972.53, -162029.16, -161862.25, 0.03, -0.04, 0.99
246, -8528.08, -8668.30, -9126.35, -8764.77, -154976.83, -160014.50, -162073.86, -161907.16, 0.00, 0.00, 0.00
247, -8531.91, -8671.85, -9130.20, -8768.43, -154980.64, -160018.17, -162077.61, -161910.80, 0.00, 0.00, 0.00
248, -8484.21, -8628.62, -9087.97, -8728.13, -154938.47, -159976.70, -162033.41, -161866.33, 0.00, 0.00, 0.00
249, -8473.23, -8618.39, -9077.58, -8718.28, -154928.16, -159966.80, -162022.97, -161856.00, 0.00, 0.00, 0.00
250, -8520.26, -8661.17, -9119.33, -8758.40, -154970.25, -160008.09, -162066.95, -161900.31, 0.00, 0.00, 0.00
251, -8535.13, -8674.80, -9132.86, -8771.27, -154983.86, -160021.20, -162081.02, -161914.17, 0.00, 0.00, 0.00
252, -8489.26, -8632.98, -9092.13, -8732.09, -154943.00, -159980.95, -162038.23, -161871.06, 0.00, 0.00, 0.00
253, -8468.72, -8614.14, -9073.51, -8714.30, -154924.39, -159962.94, -162018.94, -161851.92, 0.00, 0.00, 0.00
254, -8511.37, -8653.17, -9111.51, -8750.80, -154962.61, -160000.64, -162058.92, -161892.20, 0.00, 0.00, 0.00
255, -8539.51, -8678.87, -9136.90, -8775.12, -154988.11, -160025.59, -162085.44, -161918.63, 0.03, -0.05, 0.98
0, -8499.94, -8642.68, -9101.76, -8741.30, -154952.84, -159990.78, -162048.55, -161881.36, 0.00, 0.00, 0.00
1, -8465.32, -8610.81, -9070.34, -8711.17, -154921.48, -159960.05, -162015.88, -161848.81, 0.00, 0.00, 0.00
2, -8498.63, -8641.12, -9099.66, -8739.33, -154951.14, -159989.22, -162046.88, -161880.22, 0.00, 0.00, 0.00
3, -8534.50, -8673.79, -9131.78, -8770.06, -154983.33, -160020.73, -162080.66, -161913.94, 0.00, 0.00, 0.00
4, -8505.08, -8646.91, -9105.74, -8744.94, -154957.28, -159994.94, -162053.27, -161886.22, 0.00, 0.00, 0.00
5, -8463.38, -8608.80, -9068.33, -8709.04, -154919.98, -159958.38, -162014.30, -161847.20, 0.00, 0.00, 0.00
6, -8484.74, -8628.06, -9086.83, -8726.84, -154938.73, -159977.00, -162034.09, -161867.23, 0.00, 0.00, 0.00
7, -8526.39, -8665.91, -9123.83, -8762.24, -154975.91, -160013.56, -162073.09, -161906.28, 0.00, 0.00, 0.00
8, -8506.98, -8648.09, -9106.61, -8745.61, -154958.72, -159996.42, -162055.08, -161888.00, 0.03, -0.05, 0.98
9, -8461.14, -8606.36, -9065.80, -8706.52, -154917.88, -159956.25, -162012.28, -161845.11, 0.00, 0.00, 0.00
10, -8477.70, -8621.89, -9080.75, -8721.07, -154932.88, -159971.36, -162027.95, -161861.16, 0.00, 0.00, 0.00
11, -8527.48, -8667.38, -9125.30, -8763.81, -154977.63, -160015.33, -162074.75, -161908.09, 0.00, 0.00, 0.00
12, -8520.24, -8660.70, -9119.00, -8757.66, -154971.44, -160008.98, -162068.17, -161901.19, 0.00, 0.00, 0.00
13, -8470.55, -8615.32, -9074.61, -8715.08, -154927.02, -159965.33, -162021.70, -161854.55, 0.00, 0.00, 0.00
14, -8473.17, -8617.83, -9076.86, -8717.47, -154929.48, -159967.98, -162024.23, -161857.27, 0.00, 0.00, 0.00
15, -8521.76, -8662.13, -9120.12, -8758.96, -154972.95, -160010.88, -162069.75, -161903.05, 0.00, 0.00, 0.00
16, -8526.39, -8666.26, -9124.36, -8762.80, -154977.30, -160014.88, -162074.22, -161907.31, 0.00, 0.00, 0.00
17, -8474.93, -8619.03, -9078.23, -8718.43, -154931.06, -159969.38, -162026.05, -161858.78, 0.00, 0.00, 0.00
18, -8462.44, -8607.54, -9066.74, -8707.61, -154919.69, -159958.36, -162014.20, -161847.08, 0.03, -0.05, 0.98
19, -8506.98, -8648.05, -9106.15, -8745.37, -154959.31, -159997.33, -162055.70, -161888.97, 0.00, 0.00, 0.00
20, -8528.13, -8667.58, -9125.43, -8763.81, -154978.81, -160016.31, -162075.91, -161909.02, 0.00, 0.00, 0.00
21, -8484.63, -8627.93, -9086.81, -8726.72, -154940.19, -159978.27, -162035.45, -161868.11, 0.00, 0.00, 0.00
22, -8461.59, -8607.03, -9066.25, -8707.21, -154919.63, -159958.23, -162013.95, -161846.78, 0.00, 0.00, 0.00
23, -8504.19, -8645.95, -9104.27, -8743.87, -154957.86, -159996.00, -162053.81, -161887.06, 0.00, 0.00, 0.00
24, -8536.20, -8675.47, -9133.15, -8771.70, -154987.03, -160024.61, -162084.14, -161917.27, 0.00, 0.00, 0.00
25, -8497.60, -8640.07, -9098.70, -8738.44, -154952.48, -159990.42, -162048.13, -161880.88, 0.00, 0.00, 0.00
26, -8460.29, -8605.71, -9065.00, -8706.07, -154918.69, -159957.30, -162013.00, -161845.69, 0.00, 0.00, 0.00
27, -8489.93, -8632.49, -9090.92, -8730.95, -154944.83, -159983.19, -162040.47, -161873.52, 0.00, 0.00, 0.00
28, -8530.36, -8669.44, -9127.20, -8765.73, -154981.33, -160018.97, -162078.47, -161911.61, 0.03, -0.04, 0.99
29, -8504.75, -8646.21, -9104.67, -8744.05, -154958.81, -159996.63, -162054.77, -161887.56, 0.00, 0.00, 0.00
30, -8461.50, -8606.76, -9066.05, -8706.99, -154920.11, -159958.67, -162014.41, -161847.09, 0.00, 0.00, 0.00
31, -8483.18, -8626.63, -9085.18, -8725.65, -154939.52, -159977.94, -162034.70, -161867.73, 0.00, 0.00, 0.00
32, -8528.91, -8668.36, -9126.04, -8764.83, -154980.59, -160018.28, -162077.66, -161910.83, 0.00, 0.00, 0.00
33, -8513.38, -8654.01, -9112.31, -8751.47, -154966.86, -160004.64, -162063.19, -161896.08, 0.00, 0.00, 0.00
34, -8466.84, -8611.72, -9070.85, -8711.82, -154925.33, -159963.81, -162019.77, -161852.38, 0.00, 0.00, 0.00
35, -8476.83, -8620.93, -9079.66, -8720.42, -154934.28, -159972.81, -162029.17, -161862.09, 0.00, 0.00, 0.00
36, -8524.20, -8663.98, -9121.72, -8760.65, -154976.58, -160014.45, -162073.41, -161906.58, 0.00, 0.00, 0.00
37, -8521.40, -8661.39, -9119.42, -8758.29, -154974.30, -160011.94, -162070.89, -161903.84, 0.00, 0.00, 0.00
38, -8471.04, -8615.39, -9074.45, -8715.15, -154929.25, -159967.61, -162023.83, -161856.44, 0.04, -0.04, 0.99
39, -8467.02, -8611.66, -9070.56, -8711.61, -154925.44, -159964.14, -162020.08, -161852.81, 0.00, 0.00, 0.00
40, -8514.58, -8654.86, -9112.81, -8752.14, -154967.95, -160005.98, -162064.53, -161897.66, 0.00, 0.00, 0.00
41, -8524.15, -8663.56, -9121.48, -8760.30, -154976.80, -160014.44, -162073.67, -161906.59, 0.00, 0.00, 0.00
42, -8478.26, -8621.80, -9080.75, -8721.23, -154936.00, -159974.25, -162030.94, -161863.55, 0.00, 0.00, 0.00
43, -8461.52, -8606.56, -9065.58, -8706.76, -154920.89, -159959.50, -162015.30, -161847.95, 0.00, 0.00, 0.00
44, -8506.34, -8647.53, -9105.52, -8745.23, -154961.11, -159999.08, -162057.30, -161890.23, 0.00, 0.00, 0.00
45, -8532.20, -8671.34, -9129.10, -8767.83, -154984.78, -160022.38, -162081.91, -161914.72, 0.00, 0.00, 0.00
46, -8488.81, -8631.46, -9090.36, -8730.39, -154946.00, -159984.08, -162041.33, -161873.88, 0.00, 0.00, 0.00
47, -8459.06, -8604.08, -9063.41, -8704.51, -154919.08, -159957.73, -162013.27, -161845.89, 0.00, 0.00, 0.00
48, -8494.36, -8636.16, -9094.41, -8734.41, -154950.38, -159988.69, -162046.19, -161879.08, 0.03, -0.04, 0.99
49, -8529.00, -8667.83, -9125.68, -8764.41, -154981.78, -160019.53, -162078.91, -161911.77, 0.00, 0.00, 0.00
50, -8496.50, -8638.30, -9097.03, -8736.87, -154953.03, -159991.14, -162048.78, -161881.31, 0.00, 0.00, 0.00
51, -8458.44, -8603.61, -9062.94, -8704.22, -154918.97, -159957.69, -162013.22, -161845.69, 0.00, 0.00, 0.00
52, -8487.00, -8629.54, -9088.08, -8728.47, -154944.44, -159982.83, -162039.88, -161872.69, 0.00, 0.00, 0.00
53, -8530.70, -8669.50, -9127.36, -8766.26, -154984.00, -160021.70, -162080.98, -161913.95, 0.00, 0.00, 0.00
54, -8507.48, -8648.47, -9106.93, -8746.44, -154963.55, -160001.42, -162059.64, -161892.16, 0.00, 0.00, 0.00
55, -8462.88, -8607.79, -9067.07, -8708.22, -154923.73, -159962.33, -162018.05, -161850.47, 0.00, 0.00, 0.00
56, -8480.65, -8624.00, -9082.61, -8723.46, -154939.52, -159978.05, -162034.58, -161867.34, 0.00, 0.00, 0.00
57, -8528.71, -8667.85, -9125.57, -8764.77, -154982.77, -160020.52, -162079.78, -161912.61, 0.00, 0.00, 0.00
58, -8516.73, -8656.83, -9115.11, -8754.37, -154972.17, -160010.03, -162068.77, -161901.34, 0.03, -0.04, 0.99
59, -8466.97, -8611.32, -9070.54, -8711.64, -154927.72, -159966.31, -162022.20, -161854.66, 0.00, 0.00, 0.00
60, -8472.25, -8616.11, -9074.99, -8716.15, -154932.41, -159971.09, -162027.08, -161859.77, 0.00, 0.00, 0.00
61, -8518.72, -8658.22, -9116.07, -8755.42, -154973.72, -160011.70, -162070.42, -161903.33, 0.00, 0.00, 0.00
62, -8520.33, -8659.74, -9117.70, -8756.79, -154975.48, -160013.09, -162072.09, -161904.88, 0.00, 0.00, 0.00
63, -8472.90, -8616.58, -9075.57, -8716.53, -154933.41, -159971.72, -162027.92, -161860.36, 0.00, 0.00, 0.00
64, -8464.16, -8608.53, -9067.43, -8709.00, -154925.39, -159964.05, -162019.72, -161852.44, 0.00, 0.00, 0.00
65, -8511.37, -8651.49, -9109.43, -8749.17, -154967.61, -160005.72, -162064.00, -161896.97, 0.00, 0.00, 0.00
66, -8525.98, -8664.77, -9122.71, -8761.75, -154980.94, -160018.66, -162077.88, -161910.59, 0.00, 0.00, 0.00
67, -8477.61, -8620.42, -9079.41, -8720.02, -154937.61, -159975.88, -162032.55, -161865.05, 0.00, 0.00, 0.00
68, -8456.78, -8601.33, -9060.57, -8701.98, -154918.84, -159957.55, -162012.91, -161845.58, 0.03, -0.05, 0.99
69, -8502.04, -8642.79, -9100.89, -8740.85, -154959.59, -159997.83, -162055.38, -161888.42, 0.00, 0.00, 0.00
70, -8528.22, -8666.67, -9124.43, -8763.31, -154983.25, -160020.98, -162080.16, -161913.03, 0.00, 0.00, 0.00
71, -8489.06, -8630.99, -9089.69, -8729.85, -154948.36, -159986.52, -162043.64, -161876.06, 0.00, 0.00, 0.00
72, -8456.58, -8601.20, -9060.48, -8701.96, -154919.17, -159957.92, -162013.23, -161845.73, 0.00, 0.00, 0.00
73, -8492.46, -8634.05, -9092.49, -8732.74, -154951.42, -159989.83, -162047.13, -161879.80, 0.00, 0.00, 0.00
74, -8529.13, -8667.58, -9125.30, -8764.25, -154984.67, -160022.30, -162081.61, -161914.47, 0.00, 0.00, 0.00
75, -8498.60, -8639.75, -9098.14, -8738.17, -154957.52, -159995.45, -162053.06, -161885.72, 0.00, 0.00, 0.00
76, -8457.39, -8602.02, -9061.15, -8702.76, -154920.42, -159959.16, -162014.42, -161846.94, 0.00, 0.00, 0.00
77, -8479.87, -8622.16, -9080.66, -8721.40, -154940.09, -159978.61, -162035.30, -161868.02, 0.00, 0.00, 0.00
78, -8524.58, -8663.07, -9120.74, -8759.83, -154980.28, -160018.06, -162077.28, -161910.02, 0.03, -0.03, 0.99
79, -8505.44, -8645.59, -9103.93, -8743.64, -154963.47, -160001.47, -162059.63, -161892.11, 0.00, 0.00, 0.00
80, -8457.50, -8601.76, -9060.95, -8702.50, -154920.47, -159959.16, -162014.78, -161847.13, 0.00, 0.00, 0.00
81, -8472.58, -8615.70, -9074.38, -8715.57, -154934.08, -159972.80, -162029.05, -161861.63, 0.00, 0.00, 0.00
82, -8520.17, -8659.09, -9116.85, -8756.16, -154976.80, -160014.80, -162073.52, -161906.48, 0.00, 0.00, 0.00
83, -8511.81, -8651.33, -9109.43, -8748.85, -154969.47, -160007.34, -162065.88, -161898.42, 0.00, 0.00, 0.00
84, -8463.17, -8606.96, -9066.09, -8707.35, -154926.03, -159964.67, -162020.44, -161852.80, 0.00, 0.00, 0.00
85, -8466.30, -8610.05, -9068.93, -8710.18, -154929.03, -159967.78, -162023.50, -161856.23, 0.00, 0.00, 0.00
86, -8515.81, -8655.31, -9113.05, -8752.72, -154973.48, -160011.47, -162069.94, -161902.86, 0.00, 0.00, 0.00
87, -8521.74, -8660.65, -9118.55, -8757.91, -154979.03, -160016.72, -162075.72, -161908.41, 0.00, 0.00, 0.00
88, -8473.12, -8616.24, -9075.19, -8716.31, -154935.56, -159973.94, -162030.30, -161862.66, 0.03, -0.03, 0.99
89, -8461.16, -8605.29, -9064.26, -8705.98, -154924.78, -159963.55, -162019.13, -161851.59, 0.00, 0.00, 0.00
90, -8507.65, -8647.76, -9105.59, -8745.81, -154966.41, -160004.55, -162062.55, -161895.44, 0.00, 0.00, 0.00
91, -8525.27, -8663.78, -9121.46, -8760.92, -154982.31, -160020.06, -162079.13, -161911.83, 0.00, 0.00, 0.00
92, -8479.74, -8622.01, -9080.71, -8721.70, -154941.55, -159979.91, -162036.59, -161868.78, 0.00, 0.00, 0.00
93, -8453.90, -8598.18, -9057.17, -8699.08, -154918.06, -159956.86, -162012.13, -161844.55, 0.00, 0.00, 0.00
94, -8494.60, -8635.24, -9093.32, -8733.81, -154954.45, -159992.80, -162050.13, -161882.89, 0.00, 0.00, 0.00
95, -8525.38, -8663.51, -9121.17, -8760.48, -154982.45, -160020.20, -162079.33, -161911.92, 0.00, 0.00, 0.00
96, -8487.78, -8629.11, -9087.55, -8728.22, -154948.95, -159987.05, -162044.23, -161876.52, 0.00, 0.00, 0.00
97, -8453.45, -8597.75, -9056.68, -8698.76, -154918.17, -159956.91, -162012.08, -161844.38, 0.03, -0.03, 0.99
98, -8485.82, -8627.42, -9085.47, -8726.50, -154947.05, -159985.48, -162042.41, -161875.03, 0.00, 0.00, 0.00
99, -8524.80, -8662.89, -9120.29, -8759.78, -154981.98, -160019.70, -162079.00, -161911.58, 0.00, 0.00, 0.00
100, -8499.56, -8639.96, -9098.21, -8738.50, -154959.97, -159997.84, -162055.70, -161887.98, 0.00, 0.00, 0.00
101, -8455.58, -8599.86, -9058.85, -8700.80, -154920.61, -159959.30, -162014.63, -161846.83, 0.00, 0.00, 0.00
102, -8473.79, -8616.15, -9074.43, -8715.82, -154936.39, -159974.98, -162031.39, -161863.86, 0.00, 0.00, 0.00
103, -8521.36, -8659.65, -9117.08, -8756.72, -154979.22, -160017.09, -162075.98, -161908.59, 0.00, 0.00, 0.00
104, -8506.05, -8645.70, -9103.71, -8743.71, -154965.80, -160003.70, -162061.81, -161894.11, 0.00, 0.00, 0.00
105, -8455.31, -8599.14, -9058.13, -8699.86, -154920.16, -159958.73, -162014.17, -161846.30, 0.00, 0.00, 0.00
106, -8465.32, -8608.37, -9066.87, -8708.51, -154929.13, -159967.77, -162023.56, -161856.03, 0.00, 0.00, 0.00
107, -8515.21, -8654.01, -9111.55, -8751.42, -154973.95, -160011.80, -162070.33, -161903.05, 0.03, -0.04, 0.98
108, -8513.20, -8652.20, -9110.06, -8749.84, -154972.34, -160010.13, -162068.63, -161901.06, 0.00, 0.00, 0.00
109, -8463.53, -8606.83, -9065.69, -8707.35, -154927.83, -159966.31, -162022.11, -161854.36, 0.00, 0.00, 0.00
110, -8458.55, -8602.09, -9060.79, -8702.79, -154922.95, -159961.64, -162017.34, -161849.78, 0.00, 0.00, 0.00
111, -8506.63, -8645.74, -9103.44, -8743.78, -154965.95, -160004.02, -162062.30, -161895.05, 0.00, 0.00, 0.00
112, -8517.89, -8656.18, -9113.83, -8753.70, -154976.44, -160014.25, -162073.05, -161905.58, 0.00, 0.00, 0.00
113, -8471.11, -8613.60, -9072.24, -8713.80, -154934.73, -159973.17, -162029.41, -161861.58, 0.00, 0.00, 0.00
114, -8453.41, -8597.35, -9055.99, -8698.27, -154918.53, -159957.39, -162012.61, -161845.00, 0.00, 0.00, 0.00
115, -8498.89, -8638.66, -9096.36, -8737.05, -154959.19, -159997.48, -162055.03, -161887.72, 0.00, 0.00, 0.00
116, -8524.37, -8662.22, -9119.71, -8759.47, -154982.56, -160020.41, -162079.28, -161911.84, 0.00, 0.00, 0.00
117, -8482.64, -8624.26, -9082.72, -8723.95, -154945.50, -159983.80, -162040.44, -161872.72, 0.03, -0.04, 0.98
118, -8455.73, -8599.79, -9058.65, -8701.02, -154921.41, -159960.30, -162015.27, -161847.59, 0.00, 0.00, 0.00
119, -8490.69, -8631.39, -9089.22, -8730.37, -154952.25, -159990.73, -162047.70, -161880.41, 0.00, 0.00, 0.00
120, -8523.26, -8661.05, -9118.37, -8758.24, -154981.56, -160019.38, -162078.22, -161910.88, 0.00, 0.00, 0.00
121, -8490.11, -8630.92, -9089.02, -8730.05, -154952.14, -159990.30, -162047.42, -161879.70, 0.00, 0.00, 0.00
122, -8452.31, -8596.39, -9055.18, -8697.62, -154918.30, -159957.06, -162012.17, -161844.33, 0.00, 0.00, 0.00
123, -8480.18, -8621.74, -9079.70, -8721.25, -154942.95, -159981.59, -162038.11, -161870.56, 0.00, 0.00, 0.00
124, -8522.74, -8660.67, -9117.77, -8757.77, -154981.22, -160019.16, -162077.98, -161910.58, 0.00, 0.00, 0.00
125, -8497.37, -8637.32, -9095.21, -8735.82, -154958.58, -159996.70, -162054.25, -161886.53, 0.00, 0.00, 0.00
126, -8454.57, -8598.54, -9057.24, -8699.54, -154920.52, -159959.31, -162014.41, -161846.56, 0.00, 0.00, 0.00
127, -8475.00, -8617.40, -9075.46, -8717.34, -154938.98, -159977.67, -162033.69, -161866.09, 0.02, -0.04, 0.98
128, -8521.29, -8659.49, -9116.67, -8756.83, -154980.42, -160018.25, -162076.88, -161909.48, 0.00, 0.00, 0.00
129, -8507.74, -8647.02, -9104.69, -8745.03, -154968.38, -160006.16, -162064.25, -161896.61, 0.00, 0.00, 0.00
130, -8457.97, -8601.49, -9060.17, -8702.29, -154923.67, -159962.27, -162017.69, -161849.80, 0.00, 0.00, 0.00
131, -8461.86, -8604.91, -9063.23, -8705.31, -154926.78, -159965.55, -162021.17, -161853.42, 0.00, 0.00, 0.00
132, -8509.69, -8648.31, -9105.63, -8745.90, -154969.41, -160007.48, -162065.72, -161898.23, 0.00, 0.00, 0.00
133, -8512.30, -8650.73, -9108.27, -8748.38, -154972.06, -160010.02, -162068.41, -161900.70, 0.00, 0.00, 0.00
134, -8463.91, -8606.63, -9065.24, -8707.01, -154928.86, -159967.55, -162023.14, -161855.23, 0.00, 0.00, 0.00
135, -8455.22, -8598.67, -9057.08, -8699.28, -154920.86, -159959.73, -162014.84, -161847.13, 0.00, 0.00, 0.00
136, -8502.00, -8641.12, -9098.55, -8739.15, -154962.53, -160000.73, -162058.52, -161891.11, 0.00, 0.00, 0.00
137, -8515.54, -8653.50, -9110.91, -8750.84, -154974.86, -160012.75, -162071.39, -161903.73, 0.03, -0.04, 0.98
138, -8468.45, -8610.47, -9068.93, -8710.43, -154932.77, -159971.27, -162027.36, -161859.44, 0.00, 0.00, 0.00
139, -8448.20, -8591.92, -9050.44, -8692.88, -154914.38, -159953.39, -162008.28, -161840.34, 0.00, 0.00, 0.00
140, -8492.90, -8632.87, -9090.34, -8731.33, -154954.52, -159992.97, -162050.23, -161882.66, 0.00, 0.00, 0.00
141, -8520.91, -8658.60, -9115.71, -8755.65, -154980.00, -160017.72, -162076.56, -161908.98, 0.00, 0.00, 0.00
142, -8480.07, -8621.16, -9079.32, -8720.64, -154943.36, -159981.67, -162038.31, -161870.41, 0.00, 0.00, 0.00
143, -8448.27, -8592.12, -9050.65, -8693.24, -154914.75, -159953.70, -162008.50, -161840.58, 0.00, 0.00, 0.00
144, -8482.08, -8622.92, -9080.53, -8721.99, -154944.92, -159983.45, -162040.13, -161872.48, 0.00, 0.00, 0.00
145, -8517.00, -8654.59, -9111.71, -8751.74, -154976.19, -160014.02, -162072.77, -161905.13, 0.00, 0.00, 0.00
146, -8488.05, -8628.35, -9086.30, -8727.39, -154950.72, -159988.89, -162045.84, -161878.08, 0.00, 0.00, 0.00
147, -8450.28, -8594.00, -9052.72, -8695.36, -154916.98, -159955.92, -162010.59, -161842.84, 0.03, -0.03, 0.99
148, -8473.23, -8614.81, -9072.62, -8714.63, -154937.13, -159975.81, -162031.88, -161864.36, 0.00, 0.00, 0.00
149, -8517.78, -8655.62, -9112.52, -8752.88, -154977.25, -160015.22, -162073.70, -161906.23, 0.00, 0.00, 0.00
150, -8500.55, -8639.98, -9097.58, -8738.53, -154962.22, -160000.33, -162057.83, -161890.13, 0.00, 0.00, 0.00
151, -8454.39, -8597.84, -9056.41, -8699.05, -154920.88, -159959.72, -162014.73, -161846.78, 0.00, 0.00, 0.00
152, -8466.10, -8608.30, -9066.36, -8708.73, -154931.06, -159969.89, -162025.58, -161857.88, 0.00, 0.00, 0.00
153, -8513.24, -8651.18, -9108.16, -8748.83, -154973.17, -160011.13, -162069.52, -161901.97, 0.00, 0.00, 0.00
154, -8507.32, -8645.74, -9103.28, -8743.98, -154968.14, -160006.03, -162064.16, -161896.39, 0.00, 0.00, 0.00
155, -8460.29, -8603.01, -9061.60, -8704.04, -154926.34, -159964.97, -162020.25, -161852.31, 0.00, 0.00, 0.00
156, -8461.05, -8603.70, -9061.98, -8704.46, -154926.80, -159965.55, -162020.81, -161853.14, 0.00, 0.00, 0.00
157, -8510.52, -8648.94, -9106.06, -8746.80, -154971.05, -160009.22, -162067.20, -161899.67, 0.04, -0.03, 0.98
158, -8514.90, -8652.74, -9110.06, -8750.46, -154975.05, -160012.92, -162071.36, -161903.61, 0.00, 0.00, 0.00
159, -8465.81, -8607.92, -9066.25, -8708.40, -154931.25, -159969.75, -162025.48, -161857.41, 0.00, 0.00, 0.00
160, -8453.52, -8596.73, -9055.03, -8697.78, -154920.06, -159958.94, -162013.86, -161845.98, 0.00, 0.00, 0.00
161, -8497.66, -8636.80, -9094.08, -8735.17, -154959.30, -159997.56, -162055.02, -161887.44, 0.00, 0.00, 0.00
162, -8516.75, -8654.21, -9111.29, -8751.60, -154976.64, -160014.44, -162073.05, -161905.33, 0.00, 0.00, 0.00
163, -8473.46, -8614.72, -9072.84, -8714.63, -154938.08, -159976.38, -162032.58, -161864.59, 0.00, 0.00, 0.00
164, -8447.39, -8590.67, -9049.06, -8691.83, -154914.34, -159953.19, -162007.92, -161840.06, 0.00, 0.00, 0.00
165, -8486.51, -8626.30, -9083.73, -8725.14, -154949.16, -159987.55, -162044.47, -161876.88, 0.00, 0.00, 0.00
166, -8515.17, -8652.34, -9109.21, -8749.52, -154974.86, -160012.64, -162071.23, -161903.64, 0.00, 0.00, 0.00
167, -8478.80, -8619.26, -9077.00, -8718.50, -154942.53, -159980.75, -162037.38, -161869.41, 0.03, -0.04, 0.98
168, -8443.35, -8586.71, -9045.13, -8687.99, -154910.59, -159949.44, -162004.20, -161836.25, 0.00, 0.00, 0.00
169, -8475.22, -8615.77, -9073.18, -8715.10, -154939.05, -159977.48, -162033.80, -161866.28, 0.00, 0.00, 0.00
170, -8513.60, -8650.75, -9107.42, -8747.85, -154973.48, -160011.34, -162069.86, -161902.27, 0.00, 0.00, 0.00
171, -8485.57, -8625.07, -9082.54, -8723.75, -154948.48, -159986.67, -162043.72, -161875.78, 0.00, 0.00, 0.00
172, -8443.75, -8586.96, -9045.24, -8688.08, -154911.16, -159949.95, -162004.67, -161836.59, 0.00, 0.00, 0.00
173, -8466.46, -8607.72, -9065.35, -8707.55, -154931.48, -159970.06, -162025.98, -161858.19, 0.00, 0.00, 0.00
174, -8510.36, -8647.53, -9104.31, -8744.87, -154970.58, -160008.53, -162066.86, -161899.22, 0.00, 0.00, 0.00
175, -8492.88, -8631.59, -9088.87, -8729.83, -154955.09, -159993.11, -162050.67, -161882.75, 0.00, 0.00, 0.00
176, -8443.66, -8586.49, -9044.70, -8687.45, -154910.97, -159949.66, -162004.64, -161836.50, 0.03, -0.04, 0.98
177, -8450.55, -8592.50, -9050.29, -8692.95, -154916.77, -159955.53, -162010.95, -161843.13, 0.00, 0.00, 0.00
178, -8500.66, -8638.37, -9095.06, -8736.02, -154961.80, -159999.84, -162057.92, -161890.30, 0.00, 0.00, 0.00
179, -8497.82, -8635.86, -9092.94, -8733.76, -154959.70, -159997.61, -162055.59, -161887.53, 0.00, 0.00, 0.00
180, -8452.29, -8594.60, -9052.72, -8695.28, -154919.33, -159957.95, -162013.19, -161844.97, 0.00, 0.00, 0.00
181, -8450.50, -8593.04, -9050.94, -8693.91, -154917.61, -159956.55, -162011.55, -161843.55, 0.00, 0.00, 0.00
182, -8498.47, -8636.74, -9093.54, -8734.77, -154960.48, -159998.72, -162056.48, -161888.56, 0.00, 0.00, 0.00
183, -8509.00, -8646.50, -9103.33, -8744.09, -154970.27, -160008.17, -162066.53, -161898.48, 0.00, 0.00, 0.00
184, -8463.71, -8605.35, -9063.27, -8705.71, -154930.13, -159968.61, -162024.34, -161856.11, 0.00, 0.00, 0.00
185, -8446.97, -8589.95, -9048.01, -8691.12, -154914.95, -159953.81, -162008.59, -161840.48, 0.00, 0.00, 0.00
186, -8492.70, -8631.80, -9088.64, -8730.30, -154955.91, -159994.20, -162051.42, -161883.64, 0.03, -0.04, 0.98
187, -8514.76, -8651.89, -9108.60, -8749.34, -154975.95, -160013.77, -162072.22, -161904.44, 0.00, 0.00, 0.00
188, -8471.69, -8612.48, -9070.25, -8712.35, -154937.53, -159975.88, -162032.06, -161863.81, 0.00, 0.00, 0.00
189, -8442.79, -8585.98, -9043.99, -8687.23, -154911.31, -159950.36, -162004.80, -161836.73, 0.00, 0.00, 0.00
190, -8480.81, -8620.51, -9077.58, -8719.59, -154945.19, -159983.75, -162040.31, -161872.52, 0.00, 0.00, 0.00
191, -8512.59, -8649.43, -9106.01, -8746.82, -154973.83, -160011.69, -162070.08, -161902.27, 0.00, 0.00, 0.00
192, -8479.67, -8619.64, -9077.04, -8718.90, -154944.70, -159982.88, -162039.45, -161871.34, 0.00, 0.00, 0.00
193, -8444.27, -8587.50, -9045.57, -8688.88, -154913.16, -159952.09, -162006.48, -161838.36, 0.00, 0.00, 0.00
194, -8472.70, -8613.27, -9070.47, -8712.98, -154938.39, -159977.05, -162032.89, -161865.20, 0.00, 0.00, 0.00
195, -8512.35, -8649.37, -9105.79, -8746.82, -154973.78, -160011.69, -162069.94, -161902.27, 0.00, 0.00, 0.00
196, -8489.62, -8628.64, -9085.85, -8727.57, -154953.69, -159991.88, -162049.03, -161880.84, 0.04, -0.04, 0.98
197, -8444.69, -8587.63, -9045.57, -8688.97, -154913.41, -159952.31, -162006.91, -161838.66, 0.00, 0.00, 0.00
198, -8462.79, -8604.24, -9061.55, -8704.48, -154929.69, -159968.41, -162023.91, -161855.92, 0.00, 0.00, 0.00
199, -8507.14, -8644.45, -9100.85, -8742.08, -154969.20, -160007.28, -162065.31, -161897.45, 0.00, 0.00, 0.00
200, -8493.35, -8631.68, -9088.60, -8730.08, -154956.81, -159994.94, -162052.48, -161884.38, 0.00, 0.00, 0.00
201, -8445.47, -8588.05, -9045.95, -8689.22, -154914.23, -159952.98, -162007.81, -161839.52, 0.00, 0.00, 0.00
202, -8452.07, -8594.11, -9051.54, -8694.81, -154919.98, -159958.89, -162013.95, -161845.94, 0.00, 0.00, 0.00
203, -8500.10, -8637.74, -9094.21, -8735.75, -154962.88, -160001.06, -162058.77, -161891.00, 0.00, 0.00, 0.00
204, -8500.17, -8637.70, -9094.50, -8735.75, -154963.08, -160000.98, -162058.97, -161890.91, 0.00, 0.00, 0.00
205, -8448.69, -8590.54, -9048.37, -8691.34, -154916.84, -159955.42, -162010.72, -161842.52, 0.00, 0.00, 0.00
206, -8443.06, -8585.46, -9043.18, -8686.60, -154911.89, -159950.67, -162005.45, -161837.53, 0.03, -0.04, 0.99
207, -8492.81, -8631.15, -9087.71, -8729.50, -154956.72, -159994.88, -162052.20, -161884.52, 0.00, 0.00, 0.00
208, -8506.27, -8643.29, -9099.89, -8741.01, -154968.89, -160006.80, -162064.78, -161896.89, 0.00, 0.00, 0.00
209, -8458.77, -8599.86, -9057.51, -8700.17, -154926.39, -159964.86, -162020.38, -161852.17, 0.00, 0.00, 0.00
210, -8440.40, -8583.11, -9040.99, -8684.41, -154909.97, -159948.72, -162003.20, -161835.14, 0.00, 0.00, 0.00
211, -8484.77, -8623.66, -9080.44, -8722.46, -154949.63, -159987.88, -162044.69, -161876.88, 0.00, 0.00, 0.00
212, -8509.62, -8646.41, -9102.79, -8743.78, -154972.06, -160009.89, -162068.11, -161900.19, 0.00, 0.00, 0.00
213, -8470.44, -8610.70, -9068.10, -8710.36, -154937.22, -159975.55, -162031.67, -161863.34, 0.00, 0.00, 0.00
214, -8439.08, -8581.93, -9039.80, -8683.41, -154909.00, -159947.88, -162002.23, -161834.02, 0.00, 0.00, 0.00
215, -8471.47, -8611.17, -9068.01, -8710.59, -154937.58, -159976.02, -162032.28, -161864.33, 0.00, 0.00, 0.00
216, -8507.63, -8644.18, -9100.42, -8741.48, -154970.16, -160007.95, -162066.19, -161898.33, 0.03, -0.05, 0.99
217, -8478.28, -8617.51, -9074.61, -8716.58, -154944.19, -159982.30, -162038.98, -161870.75, 0.00, 0.00, 0.00
218, -8439.95, -8582.64, -9040.41, -8683.99, -154909.97, -159948.78, -162003.11, -161834.92, 0.00, 0.00, 0.00
219, -8466.37, -8606.90, -9063.92, -8706.70, -154933.70, -159972.38, -162027.83, -161859.92, 0.00, 0.00, 0.00
220, -8509.06, -8645.74, -9102.01, -8743.13, -154971.95, -160009.89, -162067.78, -161900.05, 0.00, 0.00, 0.00
221, -8486.17, -8624.60, -9081.45, -8723.24, -154951.36, -159989.44, -162046.44, -161878.33, 0.00, 0.00, 0.00
222, -8437.83, -8580.32, -9038.08, -8681.55, -154907.80, -159946.64, -162001.17, -161832.84, 0.00, 0.00, 0.00
223, -8455.20, -8596.46, -9053.60, -8696.84, -154923.59, -159962.28, -162017.64, -161849.48, 0.00, 0.00, 0.00
224, -8503.43, -8640.40, -9096.58, -8738.12, -154966.81, -160004.75, -162062.70, -161894.91, 0.00, 0.00, 0.00
225, -8497.66, -8635.33, -9091.97, -8733.54, -154962.11, -160000.02, -162057.56, -161889.56, 0.00, 0.00, 0.00
226, -8446.57, -8588.59, -9046.29, -8689.60, -154916.34, -159954.94, -162009.78, -161841.58, 0.02, -0.04, 0.99
227, -8448.24, -8590.13, -9047.61, -8690.94, -154917.72, -159956.47, -162011.34, -161843.19, 0.00, 0.00, 0.00
228, -8499.41, -8636.94, -9093.27, -8734.86, -154963.61, -160001.66, -162059.19, -161891.36, 0.00, 0.00, 0.00
229, -8504.62, -8641.65, -9098.17, -8739.35, -154968.55, -160006.39, -162064.33, -161896.27, 0.00, 0.00, 0.00
230, -8454.95, -8596.28, -9053.78, -8696.68, -154924.05, -159962.58, -162017.89, -161849.42, 0.00, 0.00, 0.00
231, -8443.21, -8585.46, -9042.96, -8686.36, -154913.28, -159952.19, -162006.69, -161838.41, 0.00, 0.00, 0.00
232, -8488.12, -8626.41, -9082.77, -8724.65, -154953.42, -159991.64, -162048.72, -161880.73, 0.00, 0.00, 0.00
233, -8506.29, -8642.99, -9099.19, -8740.38, -154969.91, -160007.66, -162065.86, -161897.72, 0.00, 0.00, 0.00
234, -8463.80, -8604.44, -9061.64, -8704.31, -154932.30, -159970.61, -162026.34, -161857.89, 0.00, 0.00, 0.00
235, -8438.34, -8580.97, -9038.42, -8682.11, -154909.08, -159948.00, -162002.28, -161833.98, 0.00, 0.00, 0.00
236, -8477.10, -8616.02, -9072.44, -8714.70, -154943.38, -159981.75, -162038.23, -161870.23, 0.03, -0.04, 0.99
237, -8508.57, -8645.01, -9100.98, -8742.04, -154972.06, -160009.88, -162067.94, -161900.03, 0.00, 0.00, 0.00
238, -8470.66, -8610.36, -9067.41, -8709.60, -154938.27, -159976.55, -162032.75, -161864.38, 0.00, 0.00, 0.00
239, -8433.94, -8576.52, -9034.22, -8677.77, -154905.08, -159943.92, -161998.20, -161829.75, 0.00, 0.00, 0.00
240, -8467.78, -8607.46, -9064.12, -8706.90, -154935.42, -159973.86, -162029.89, -161861.83, 0.00, 0.00, 0.00
241, -8507.23, -8643.58, -9099.64, -8740.96, -154971.03, -160008.80, -162066.95, -161898.95, 0.00, 0.00, 0.00
242, -8480.16, -8619.03, -9075.93, -8718.01, -154947.11, -159985.25, -162041.88, -161873.50, 0.00, 0.00, 0.00
243, -8437.85, -8580.43, -9038.06, -8681.77, -154909.30, -159948.00, -162002.33, -161833.91, 0.00, 0.00, 0.00
244, -8459.40, -8599.97, -9056.88, -8699.92, -154928.30, -159966.88, -162022.30, -161854.27, 0.00, 0.00, 0.00
245, -8505.53, -8642.01, -9098.08, -8739.40, -154969.67, -160007.53, -162065.52, -161897.53, 0.00, 0.00, 0.00
246, -8489.73, -8627.68, -9084.31, -8726.01, -154955.88, -159993.77, -162050.95, -161882.59, 0.02, -0.04, 0.99
247, -8441.38, -8583.45, -9041.03, -8684.50, -154912.53, -159951.30, -162005.59, -161837.22, 0.00, 0.00, 0.00
248, -8451.80, -8592.99, -9050.02, -8693.46, -154921.64, -159960.50, -162015.25, -161847.23, 0.00, 0.00, 0.00
249, -8500.08, -8637.14, -9093.02, -8734.75, -154964.91, -160002.98, -162060.58, -161892.66, 0.00, 0.00, 0.00
250, -8497.46, -8634.88, -9091.10, -8732.85, -154962.94, -160000.84, -162058.50, -161890.14, 0.00, 0.00, 0.00
251, -8448.00, -8589.64, -9046.98, -8690.51, -154918.73, -159957.28, -162012.17, -161843.56, 0.00, 0.00, 0.00
252, -8443.97, -8585.73, -9042.87, -8686.69, -154914.73, -159953.59, -162008.19, -161839.83, 0.00, 0.00, 0.00
253, -8492.81, -8630.30, -9086.36, -8728.40, -154958.42, -159996.67, -162053.77, -161885.86, 0.00, 0.00, 0.00
254, -8502.18, -8638.93, -9095.01, -8736.54, -154967.09, -160005.00, -162062.81, -161894.58, 0.00, 0.00, 0.00
255, -8452.96, -8593.91, -9051.05, -8694.25, -154923.05, -159961.55, -162016.70, -161848.11, 0.00, 0.00, 0.00
0, -8437.94, -8580.14, -9037.35, -8681.26, -154909.50, -159948.30, -162002.55, -161834.14, 0.03, -0.04, 0.98
1, -8484.92, -8623.17, -9079.21, -8721.65, -154951.70, -159989.92, -162046.59, -161878.59, 0.00, 0.00, 0.00
2, -8505.75, -8642.10, -9098.01, -8739.46, -154970.47, -160008.33, -162066.23, -161898.06, 0.00, 0.00, 0.00
3, -8462.08, -8602.27, -9059.18, -8702.05, -154931.47, -159969.91, -162025.64, -161857.05, 0.00, 0.00, 0.00
4, -8436.04, -8578.46, -9035.76, -8679.79, -154908.11, -159947.11, -162001.22, -161832.70, 0.00, 0.00, 0.00
5, -8475.16, -8614.18, -9070.45, -8713.13, -154943.06, -159981.59, -162037.77, -161869.56, 0.00, 0.00, 0.00
6, -8507.70, -8643.91, -9099.71, -8741.14, -154972.39, -160010.25, -162068.27, -161899.98, 0.00, 0.00, 0.00
7, -8475.67, -8614.92, -9071.66, -8714.16, -154944.17, -159982.36, -162038.66, -161870.02, 0.00, 0.00, 0.00
8, -8439.42, -8582.00, -9039.25, -8683.29, -154911.75, -159950.64, -162004.86, -161836.23, 0.00, 0.00, 0.00
9, -8467.31, -8607.21, -9063.68, -8706.81, -154936.41, -159975.09, -162030.77, -161862.50, 0.03, -0.04, 0.98
10, -8507.52, -8643.78, -9099.44, -8741.12, -154972.39, -160010.34, -162068.27, -161900.20, 0.00, 0.00, 0.00
11, -8482.22, -8620.53, -9076.93, -8719.35, -154949.86, -159987.92, -162044.58, -161876.27, 0.00, 0.00, 0.00
12, -8438.39, -8580.52, -9037.73, -8681.86, -154910.59, -159949.38, -162003.56, -161835.05, 0.00, 0.00, 0.00
13, -8454.30, -8594.83, -9051.36, -8694.96, -154924.39, -159963.06, -162018.31, -161850.00, 0.00, 0.00, 0.00
14, -8499.32, -8635.78, -9091.44, -8733.18, -154964.61, -160002.52, -162060.33, -161892.11, 0.00, 0.00, 0.00
15, -8488.52, -8626.16, -9082.27, -8724.27, -154955.39, -159993.41, -162050.50, -161882.03, 0.00, 0.00, 0.00
16, -8439.35, -8581.35, -9038.38, -8682.16, -154911.36, -159950.11, -162004.56, -161835.88, 0.00, 0.00, 0.00
17, -8445.09, -8586.47, -9043.11, -8686.89, -154916.34, -159955.14, -162009.91, -161841.42, 0.00, 0.00, 0.00
18, -8495.36, -8632.31, -9087.97, -8729.92, -154961.38, -159999.44, -162056.92, -161888.66, 0.00, 0.00, 0.00
19, -8496.84, -8633.74, -9089.69, -8731.51, -154963.03, -160000.89, -162058.44, -161889.95, 0.04, -0.04, 0.98
20, -8444.15, -8585.44, -9042.33, -8685.89, -154915.59, -159954.13, -162008.91, -161840.30, 0.00, 0.00, 0.00
21, -8437.18, -8578.98, -9035.74, -8679.67, -154909.08, -159947.94, -162002.23, -161833.80, 0.00, 0.00, 0.00
22, -8484.19, -8621.78, -9077.54, -8719.68, -154951.05, -159989.25, -162046.16, -161877.88, 0.00, 0.00, 0.00
23, -8498.51, -8634.95, -9090.70, -8732.36, -154964.28, -160002.08, -162059.80, -161891.38, 0.00, 0.00, 0.00
24, -8453.45, -8594.02, -9050.80, -8694.11, -154924.20, -159962.58, -162017.86, -161849.13, 0.00, 0.00, 0.00
25, -8435.08, -8577.42, -9034.28, -8678.49, -154907.73, -159946.58, -162000.67, -161832.13, 0.00, 0.00, 0.00
26, -8479.80, -8618.25, -9074.03, -8716.78, -154947.78, -159986.16, -162042.52, -161874.33, 0.00, 0.00, 0.00
27, -8503.92, -8640.00, -9095.68, -8737.32, -154969.48, -160007.23, -162065.25, -161896.83, 0.00, 0.00, 0.00
28, -8463.00, -8602.58, -9059.32, -8702.14, -154932.97, -159971.11, -162026.97, -161858.20, 0.00, 0.00, 0.00
29, -8433.33, -8575.67, -9032.76, -8676.92, -154906.33, -159945.30, -161999.25, -161830.58, 0.04, -0.04, 0.98
30, -8468.23, -8607.37, -9063.65, -8706.70, -154937.42, -159976.03, -162031.81, -161863.53, 0.00, 0.00, 0.00
31, -8504.44, -8640.58, -9096.13, -8737.90, -154970.05, -160008.05, -162065.86, -161897.64, 0.00, 0.00, 0.00
32, -8473.08, -8611.97, -9068.37, -8711.08, -154942.13, -159980.45, -162036.64, -161868.02, 0.00, 0.00, 0.00
33, -8432.24, -8574.40, -9031.58, -8675.76, -154905.20, -159944.19, -161998.27, -161829.47, 0.00, 0.00, 0.00
34, -8456.47, -8596.35, -9052.77, -8696.15, -154926.63, -159965.42, -162020.75, -161852.31, 0.00, 0.00, 0.00
35, -8500.37, -8636.49, -9092.06, -8733.85, -154966.11, -160004.16, -162061.83, -161893.50, 0.00, 0.00, 0.00
36, -8481.64, -8619.48, -9075.75, -8718.03, -154949.73, -159987.80, -162044.47, -161875.89, 0.00, 0.00, 0.00
37, -8433.51, -8575.34, -9032.47, -8676.54, -154906.45, -159945.19, -161999.34, -161830.64, 0.00, 0.00, 0.00
38, -8447.30, -8588.01, -9044.43, -8688.26, -154918.69, -159957.34, -162012.19, -161843.83, 0.00, 0.00, 0.00
39, -8498.13, -8634.70, -9090.05, -8732.18, -154964.50, -160002.55, -162059.95, -161891.72, 0.04, -0.04, 0.99
40, -8489.33, -8626.57, -9082.38, -8724.76, -154956.64, -159994.72, -162051.80, -161883.23, 0.00, 0.00, 0.00
41, -8438.30, -8579.85, -9036.68, -8680.88, -154910.81, -159949.66, -162003.98, -161835.25, 0.00, 0.00, 0.00
42, -8439.55, -8580.86, -9037.46, -8681.66, -154911.64, -159950.69, -162004.97, -161836.48, 0.00, 0.00, 0.00
43, -8489.35, -8626.25, -9081.87, -8724.33, -154956.28, -159994.55, -162051.61, -161883.44, 0.00, 0.00, 0.00
44, -8494.15, -8630.77, -9086.52, -8728.62, -154960.92, -159998.91, -162056.22, -161887.80, 0.00, 0.00, 0.00
45, -8445.23, -8586.18, -9042.93, -8686.78, -154917.34, -159955.98, -162010.63, -161841.80, 0.00, 0.00, 0.00
46, -8433.69, -8575.47, -9032.09, -8676.57, -154906.56, -159945.59, -161999.61, -161830.89, 0.00, 0.00, 0.00
47, -8480.43, -8618.14, -9073.71, -8716.46, -154948.34, -159986.67, -162043.17, -161874.92, 0.00, 0.00, 0.00
48, -8496.97, -8633.12, -9088.73, -8730.70, -154963.41, -160001.31, -162058.77, -161890.28, 0.00, 0.00, 0.00
49, -8451.48, -8591.59, -9048.23, -8691.72, -154922.70, -159961.23, -162016.30, -161847.41, 0.03, -0.04, 0.99
50, -8428.82, -8570.98, -9027.71, -8672.19, -154902.23, -159941.19, -161994.98, -161826.27, 0.00, 0.00, 0.00
51, -8470.37, -8608.91, -9064.50, -8707.73, -154939.30, -159977.78, -162033.84, -161865.42, 0.00, 0.00, 0.00
52, -8498.27, -8634.30, -9089.56, -8731.71, -154964.45, -160002.44, -162060.13, -161891.67, 0.00, 0.00, 0.00
53, -8462.17, -8601.44, -9057.66, -8700.93, -154932.44, -159970.84, -162026.53, -161857.69, 0.00, 0.00, 0.00
54, -8425.80, -8567.98, -9024.74, -8669.19, -154899.47, -159938.39, -161992.20, -161823.39, 0.00, 0.00, 0.00
55, -8457.39, -8596.64, -9052.55, -8695.95, -154927.41, -159966.05, -162021.58, -161853.14, 0.00, 0.00, 0.00
56, -8494.36, -8630.32, -9085.58, -8727.60, -154960.59, -159998.59, -162056.27, -161887.75, 0.00, 0.00, 0.00
57, -8465.59, -8603.95, -9060.01, -8702.96, -154935.06, -159973.23, -162029.52, -161860.64, 0.00, 0.00, 0.00
58, -8425.89, -8567.98, -9024.83, -8669.35, -154899.70, -159938.70, -161992.52, -161823.61, 0.00, 0.00, 0.00
59, -8448.94, -8589.01, -9045.21, -8688.93, -154920.20, -159959.00, -162013.95, -161845.38, 0.03, -0.04, 0.99
60, -8493.80, -8629.94, -9085.18, -8727.15, -154960.38, -159998.41, -162055.91, -161887.44, 0.00, 0.00, 0.00
61, -8478.82, -8616.40, -9072.15, -8714.54, -154947.27, -159985.38, -162042.00, -161873.14, 0.00, 0.00, 0.00
62, -8430.41, -8572.09, -9028.83, -8673.06, -154903.86, -159942.73, -161996.66, -161827.61, 0.00, 0.00, 0.00
63, -8440.33, -8580.97, -9037.23, -8681.28, -154912.36, -159951.22, -162005.64, -161836.92, 0.00, 0.00, 0.00
64, -8489.66, -8626.05, -9081.20, -8723.44, -154956.53, -159994.61, -162051.86, -161883.33, 0.00, 0.00, 0.00
65, -8484.90, -8621.65, -9077.13, -8719.37, -154952.48, -159990.47, -162047.50, -161878.80, 0.00, 0.00, 0.00
66, -8432.84, -8573.97, -9030.53, -8674.58, -154905.73, -159944.56, -161998.75, -161829.78, 0.00, 0.00, 0.00
67, -8429.00, -8570.26, -9026.57, -8670.96, -154901.97, -159940.92, -161994.95, -161826.16, 0.00, 0.00, 0.00
68, -8480.59, -8617.58, -9072.77, -8715.53, -154948.36, -159986.63, -162043.25, -161874.81, 0.00, 0.00, 0.00
69, -8493.82, -8629.99, -9085.27, -8727.62, -154960.84, -159998.78, -162056.02, -161887.36, 0.03, -0.04, 0.99
70, -8445.96, -8586.33, -9042.71, -8686.65, -154918.13, -159956.67, -162011.34, -161842.38, 0.00, 0.00, 0.00
71, -8429.94, -8571.58, -9027.98, -8672.63, -154903.47, -159942.50, -161996.14, -161827.34, 0.00, 0.00, 0.00
72, -8476.09, -8613.76, -9069.06, -8712.20, -154944.83, -159983.23, -162039.34, -161870.86, 0.00, 0.00, 0.00
73, -8496.21, -8632.11, -9087.12, -8729.45, -154962.97, -160000.86, -162058.28, -161889.64, 0.00, 0.00, 0.00
74, -8454.19, -8593.82, -9049.84, -8693.62, -154925.55, -159963.98, -162019.16, -161850.19, 0.00, 0.00, 0.00
75, -8427.99, -8569.82, -9026.24, -8671.11, -154901.86, -159940.94, -161994.52, -161825.69, 0.00, 0.00, 0.00
76, -8466.33, -8604.71, -9060.15, -8703.68, -154936.03, -159974.64, -162030.27, -161861.67, 0.00, 0.00, 0.00
77, -8498.98, -8634.52, -9089.52, -8731.73, -154965.48, -160003.44, -162060.89, -161892.30, 0.00, 0.00, 0.00
78, -8462.93, -8601.60, -9057.53, -8700.80, -154933.22, -159971.63, -162027.20, -161858.28, 0.00, 0.00, 0.00
79, -8422.72, -8564.56, -9021.10, -8665.79, -154896.72, -159935.72, -161989.28, -161820.30, 0.03, -0.05, 0.98
80, -8452.13, -8591.41, -9047.11, -8690.85, -154922.89, -159961.55, -162016.59, -161848.06, 0.00, 0.00, 0.00
81, -8494.49, -8630.17, -9085.09, -8727.37, -154961.02, -159999.08, -162056.44, -161887.91, 0.00, 0.00, 0.00
82, -8470.77, -8608.62, -9064.28, -8707.26, -154940.14, -159978.30, -162034.50, -161865.66, 0.00, 0.00, 0.00
83, -8425.94, -8567.62, -9024.09, -8668.70, -154899.75, -159938.73, -161992.34, -161823.39, 0.00, 0.00, 0.00
84, -8444.76, -8584.77, -9040.48, -8684.64, -154916.41, -159955.30, -162009.81, -161841.13, 0.00, 0.00, 0.00
85, -8492.12, -8627.97, -9082.79, -8725.27, -154958.97, -159997.06, -162054.28, -161885.59, 0.00, 0.00, 0.00
86, -8482.24, -8619.26, -9074.65, -8717.38, -154950.64, -159988.69, -162045.33, -161876.33, 0.00, 0.00, 0.00
87, -8435.62, -8576.95, -9033.28, -8677.86, -154909.19, -159947.89, -162001.95, -161832.75, 0.00, 0.00, 0.00
88, -8440.60, -8581.28, -9037.28, -8681.73, -154913.28, -159952.08, -162006.42, -161837.48, 0.03, -0.04, 0.98
89, -8486.58, -8622.83, -9077.78, -8720.44, -154954.05, -159992.16, -162049.19, -161880.41, 0.00, 0.00, 0.00
90, -8484.83, -8621.09, -9076.35, -8718.86, -154952.55, -159990.47, -162047.53, -161878.56, 0.00, 0.00, 0.00
91, -8436.22, -8576.79, -9033.05, -8677.42, -154909.00, -159947.67, -162002.05, -161832.92, 0.00, 0.00, 0.00
92, -8429.40, -8570.60, -9026.64, -8671.34, -154902.70, -159941.67, -161995.61, -161826.61, 0.00, 0.00, 0.00
93, -8475.36, -8612.28, -9067.14, -8710.21, -154943.56, -159981.73, -162038.25, -161869.52, 0.00, 0.00, 0.00
94, -8489.13, -8624.87, -9079.79, -8722.14, -154956.19, -159994.00, -162051.30, -161882.45, 0.00, 0.00, 0.00
95, -8441.78, -8581.62, -9037.73, -8681.55, -154913.81, -159952.36, -162006.98, -161837.86, 0.00, 0.00, 0.00
96, -8423.46, -8564.90, -9021.14, -8665.86, -154897.27, -159936.20, -161989.84, -161820.75, 0.00, 0.00, 0.00
97, -8467.58, -8605.09, -9060.12, -8703.52, -154936.66, -159974.98, -162030.89, -161862.25, 0.00, 0.00, 0.00
98, -8493.91, -8629.34, -9084.04, -8726.43, -154960.59, -159998.39, -162055.73, -161887.11, 0.03, -0.04, 0.99
99, -8454.14, -8593.26, -9048.99, -8692.66, -154925.28, -159963.63, -162018.89, -161849.80, 0.00, 0.00, 0.00
100, -8425.47, -8567.02, -9023.31, -8668.12, -154899.53, -159938.50, -161991.94, -161822.98, 0.00, 0.00, 0.00
101, -8460.47, -8598.74, -9054.00, -8697.67, -154930.47, -159969.03, -162024.34, -161855.80, 0.00, 0.00, 0.00
102, -8495.05, -8630.30, -9085.00, -8727.37, -154961.63, -159999.50, -162056.89, -161888.19, 0.00, 0.00, 0.00
103, -8462.79, -8600.82, -9056.35, -8699.79, -154932.92, -159971.11, -162026.83, -161857.73, 0.00, 0.00, 0.00
104, -8420.15, -8561.63, -9017.86, -8662.87, -154894.28, -159933.28, -161986.70, -161817.59, 0.00, 0.00, 0.00
105, -8444.13, -8583.20, -9038.69, -8682.92, -154915.28, -159954.11, -162008.81, -161840.02, 0.00, 0.00, 0.00
106, -8488.97, -8624.24, -9078.88, -8721.58, -154955.78, -159993.80, -162050.86, -161882.25, 0.00, 0.00, 0.00
107, -8472.23, -8609.38, -9064.62, -8707.84, -154941.48, -159979.61, -162035.70, -161866.67, 0.00, 0.00, 0.00
108, -8425.85, -8566.93, -9023.18, -8668.01, -154899.86, -159938.73, -161992.36, -161823.14, 0.03, -0.04, 0.98
109, -8439.44, -8579.16, -9034.82, -8679.23, -154911.58, -159950.39, -162004.75, -161835.83, 0.00, 0.00, 0.00
110, -8486.85, -8622.34, -9077.04, -8719.73, -154953.84, -159992.03, -162048.95, -161880.25, 0.00, 0.00, 0.00
111, -8476.67, -8612.93, -9068.04, -8710.92, -154944.80, -159982.98, -162039.44, -161870.48, 0.00, 0.00, 0.00
112, -8428.15, -8568.70, -9024.83, -8669.50, -154901.47, -159940.36, -161994.16, -161825.00, 0.00, 0.00, 0.00
113, -8431.08, -8571.38, -9027.24, -8671.94, -154904.00, -159943.02, -161996.88, -161827.83, 0.00, 0.00, 0.00
114, -8480.45, -8616.46, -9071.23, -8714.16, -154948.20, -159986.50, -162043.03, -161874.23, 0.00, 0.00, 0.00
115, -8487.49, -8623.15, -9077.98, -8720.64, -154955.05, -159993.00, -162049.84, -161880.97, 0.00, 0.00, 0.00
116, -8435.21, -8575.22, -9031.09, -8675.40, -154908.02, -159946.59, -162000.75, -161831.63, 0.00, 0.00, 0.00
117, -8423.12, -8563.98, -9019.78, -8664.61, -154896.75, -159935.78, -161989.25, -161820.23, 0.00, 0.00, 0.00
118, -8472.25, -8608.95, -9063.65, -8706.88, -154940.95, -159979.25, -162035.33, -161866.64, 0.03, -0.04, 0.99
119, -8488.90, -8624.13, -9078.70, -8721.34, -154956.17, -159994.09, -162051.02, -161882.25, 0.00, 0.00, 0.00
120, -8442.52, -8581.73, -9037.35, -8681.51, -154914.66, -159953.02, -162007.66, -161838.50, 0.00, 0.00, 0.00
121, -8418.61, -8559.73, -9015.60, -8660.76, -154892.89, -159931.80, -161985.23, -161816.14, 0.00, 0.00, 0.00
122, -8459.91, -8597.35, -9052.17, -8695.92, -154929.69, -159968.17, -162023.75, -161854.98, 0.00, 0.00, 0.00
123, -8489.39, -8624.40, -9078.74, -8721.38, -154956.41, -159994.30, -162051.50, -161882.61, 0.00, 0.00, 0.00
124, -8448.51, -8586.80, -9042.17, -8686.02, -154919.75, -159958.00, -162013.23, -161844.02, 0.00, 0.00, 0.00
125, -8413.29, -8554.39, -9010.35, -8655.42, -154887.86, -159926.84, -161980.06, -161810.84, 0.00, 0.00, 0.00
126, -8447.08, -8585.33, -9040.30, -8684.43, -154918.14, -159956.75, -162011.73, -161842.81, 0.00, 0.00, 0.00
127, -8488.43, -8623.24, -9077.60, -8720.31, -154955.59, -159993.33, -162050.61, -161881.77, 0.00, 0.00, 0.00
128, -8459.22, -8596.55, -9051.74, -8695.30, -154929.56, -159967.66, -162023.36, -161854.19, 0.03, -0.04, 0.99
129, -8418.92, -8559.94, -9015.80, -8660.94, -154893.66, -159932.56, -161985.86, -161816.52, 0.00, 0.00, 0.00
130, -8443.75, -8582.78, -9037.82, -8682.36, -154915.95, -159954.69, -162009.19, -161840.17, 0.00, 0.00, 0.00
131, -8487.78, -8622.90, -9077.16, -8719.91, -154955.41, -159993.38, -162050.50, -161881.61, 0.00, 0.00, 0.00
132, -8471.87, -8608.46, -9063.36, -8706.54, -154941.59, -159979.55, -162035.86, -161866.67, 0.00, 0.00, 0.00
133, -8425.65, -8566.42, -9022.28, -8667.16, -154900.38, -159939.13, -161992.72, -161823.41, 0.00, 0.00, 0.00
134, -8433.78, -8573.50, -9028.85, -8673.62, -154907.06, -159946.00, -162000.00, -161830.92, 0.00, 0.00, 0.00
135, -8481.50, -8616.98, -9071.23, -8714.23, -154949.70, -159987.91, -162044.58, -161875.78, 0.00, 0.00, 0.00
136, -8478.55, -8614.45, -9069.02, -8712.13, -154947.47, -159985.64, -162042.19, -161873.09, 0.00, 0.00, 0.00
137, -8429.11, -8569.35, -9024.99, -8669.79, -154903.31, -159942.22, -161996.00, -161826.67, 0.00, 0.00, 0.00
138, -8427.50, -8567.89, -9023.29, -8668.34, -154901.88, -159940.86, -161994.48, -161825.42, 0.03, -0.04, 0.99
139, -8475.74, -8611.84, -9066.11, -8709.42, -154944.92, -159983.25, -162039.45, -161870.67, 0.00, 0.00, 0.00
140, -8483.56, -8618.81, -9073.31, -8716.08, -154952.03, -159990.14, -162046.83, -161877.86, 0.00, 0.00, 0.00
141, -8436.69, -8576.30, -9031.83, -8676.28, -154910.45, -159949.23, -162003.36, -161834.00, 0.00, 0.00, 0.00
142, -8424.35, -8565.10, -9020.63, -8665.70, -154899.42, -159938.61, -161991.73, -161822.59, 0.00, 0.00, 0.00
143, -8470.75, -8607.50, -9061.98, -8705.42, -154941.06, -159979.63, -162035.30, -161866.52, 0.00, 0.00, 0.00
144, -8489.04, -8624.06, -9078.36, -8721.00, -154957.53, -159995.59, -162052.52, -161883.67, 0.00, 0.00, 0.00
145, -8443.19, -8581.88, -9037.35, -8681.48, -154916.30, -159954.94, -162009.63, -161840.38, 0.00, 0.00, 0.00
146, -8415.39, -8556.34, -9012.13, -8657.43, -154891.23, -159930.41, -161983.47, -161814.28, 0.00, 0.00, 0.00
147, -8454.93, -8592.43, -9047.20, -8691.23, -154926.58, -159965.28, -162020.44, -161851.56, 0.00, 0.00, 0.00
148, -8487.87, -8622.65, -9076.91, -8719.55, -154956.48, -159994.55, -162051.59, -161882.58, 0.03, -0.04, 0.99
149, -8454.37, -8592.30, -9047.45, -8691.23, -154927.00, -159965.34, -162020.69, -161851.25, 0.00, 0.00, 0.00
150, -8418.07, -8559.15, -9014.88, -8660.16, -154894.44, -159933.47, -161986.70, -161817.30, 0.00, 0.00, 0.00
151, -8446.88, -8585.21, -9040.05, -8684.41, -154919.91, -159958.72, -162013.34, -161844.44, 0.00, 0.00, 0.00
152, -8487.52, -8622.39, -9076.46, -8719.24, -154956.56, -159994.66, -162051.64, -161882.64, 0.00, 0.00, 0.00
153, -8462.97, -8600.15, -9054.87, -8698.52, -154935.05, -159973.33, -162029.02, -161859.69, 0.00, 0.00, 0.00
154, -8418.83, -8559.87, -9015.33, -8660.63, -154895.50, -159934.50, -161987.78, -161818.38, 0.00, 0.00, 0.00
155, -8437.07, -8576.34, -9031.18, -8675.81, -154911.44, -159950.47, -162004.61, -161835.55, 0.00, 0.00, 0.00
156, -8485.53, -8620.67, -9074.72, -8717.52, -154955.11, -159993.38, -162050.13, -161881.16, 0.00, 0.00, 0.00
157, -8473.23, -8609.53, -9064.08, -8707.26, -154944.44, -159982.67, -162038.78, -161869.61, 0.00, 0.00, 0.00
158, -8422.79, -8563.42, -9018.91, -8663.78, -154899.13, -159938.14, -161991.58, -161822.17, 0.03, -0.04, 1.00
159, -8429.65, -8569.55, -9024.72, -8669.48, -154905.08, -159944.30, -161997.86, -161828.81, 0.00, 0.00, 0.00
160, -8480.63, -8616.13, -9070.32, -8713.36, -154951.00, -159989.36, -162045.69, -161876.84, 0.00, 0.00, 0.00
161, -8482.08, -8617.67, -9071.95, -8714.92, -154952.84, -159990.97, -162047.42, -161878.25, 0.00, 0.00, 0.00
162, -8432.55, -8572.50, -9027.80, -8672.54, -154908.56, -159947.45, -162001.19, -161831.67, 0.00, 0.00, 0.00
163, -8426.29, -8566.55, -9021.81, -8666.98, -154902.64, -159941.83, -161995.17, -161825.80, 0.00, 0.00, 0.00
164, -8474.35, -8610.27, -9064.46, -8707.97, -154945.64, -159984.13, -162040.06, -161870.97, 0.00, 0.00, 0.00
165, -8486.78, -8621.67, -9075.75, -8718.68, -154957.02, -159995.13, -162051.80, -161882.59, 0.00, 0.00, 0.00
166, -8440.60, -8579.65, -9034.75, -8679.32, -154915.91, -159954.75, -162008.83, -161839.36, 0.00, 0.00, 0.00
167, -8420.04, -8560.70, -9015.93, -8661.35, -154897.25, -159936.45, -161989.48, -161820.17, 0.03, -0.03, 0.99
168, -8462.46, -8599.25, -9053.42, -8697.42, -154935.05, -159973.59, -162029.06, -161859.91, 0.00, 0.00, 0.00
169, -8488.88, -8623.50, -9077.36, -8720.44, -154959.03, -159997.22, -162054.08, -161884.78, 0.00, 0.00, 0.00
170, -8448.42, -8586.67, -9041.44, -8685.98, -154923.05, -159961.75, -162016.44, -161846.88, 0.00, 0.00, 0.00
171, -8417.38, -8558.21, -9013.39, -8659.18, -154894.97, -159934.33, -161987.38, -161817.81, 0.00, 0.00, 0.00
172, -8452.60, -8590.31, -9044.45, -8689.04, -154926.34, -159965.22, -162020.17, -161851.02, 0.00, 0.00, 0.00
173, -8487.34, -8621.98, -9075.41, -8718.83, -154957.69, -159995.88, -162052.69, -161883.64, 0.00, 0.00, 0.00
174, -8456.63, -8594.02, -9048.41, -8692.79, -154930.50, -159969.00, -162024.19, -161854.75, 0.00, 0.00, 0.00
175, -8417.49, -8558.24, -9013.52, -8659.36, -154895.50, -159934.64, -161987.73, -161818.11, 0.00, 0.00, 0.00
176, -8442.86, -8581.19, -9035.63, -8680.75, -154917.91, -159956.83, -162011.20, -161842.03, 0.00, 0.00, 0.00
177, -8485.15, -8619.77, -9073.29, -8716.91, -154955.75, -159994.03, -162050.72, -161881.72, 0.03, -0.04, 0.99
178, -8464.85, -8601.31, -9055.56, -8699.83, -154937.91, -159976.39, -162032.11, -161862.67, 0.00, 0.00, 0.00
179, -8418.74, -8559.22, -9014.26, -8660.32, -154896.69, -159935.80, -161988.94, -161819.38, 0.00, 0.00, 0.00
180, -8432.82, -8571.96, -9026.35, -8672.03, -154909.00, -159948.05, -162002.00, -161832.64, 0.00, 0.00, 0.00
181, -8482.22, -8617.07, -9070.49, -8714.48, -154953.38, -159991.75, -162048.33, -161879.17, 0.00, 0.00, 0.00
182, -8472.90, -8608.51, -9062.38, -8706.45, -154945.27, -159983.50, -162039.69, -161870.19, 0.00, 0.00, 0.00
183, -8423.08, -8563.04, -9017.95, -8663.71, -154900.78, -159939.73, -161993.14, -161823.42, 0.00, 0.00, 0.00
184, -8428.42, -8568.18, -9022.71, -8668.65, -154905.77, -159944.86, -161998.39, -161828.81, 0.00, 0.00, 0.00
185, -8476.67, -8612.10, -9065.62, -8709.74, -154948.86, -159987.30, -162043.50, -161874.33, 0.00, 0.00, 0.00
186, -8479.89, -8615.03, -9068.73, -8712.55, -154951.92, -159990.14, -162046.52, -161877.19, 0.00, 0.00, 0.00
187, -8429.07, -8568.47, -9023.20, -8668.79, -154906.33, -159945.19, -161998.89, -161829.28, 0.03, -0.03, 0.99
188, -8419.10, -8559.26, -9013.88, -8660.03, -154897.11, -159936.42, -161989.50, -161820.05, 0.00, 0.00, 0.00
189, -8467.33, -8603.32, -9056.86, -8701.42, -154940.52, -159979.13, -162034.67, -161865.53, 0.00, 0.00, 0.00
190, -8482.84, -8617.40, -9070.90, -8714.61, -154954.52, -159992.69, -162049.31, -161880.02, 0.00, 0.00, 0.00
191, -8437.13, -8575.63, -9030.22, -8675.52, -154913.70, -159952.45, -162006.64, -161837.00, 0.00, 0.00, 0.00
192, -8415.30, -8555.76, -9010.50, -8656.81, -154894.03, -159933.34, -161986.08, -161816.72, 0.00, 0.00, 0.00
193, -8457.27, -8594.16, -9047.76, -8692.73, -154931.63, -159970.42, -162025.44, -161856.39, 0.00, 0.00, 0.00
194, -8484.74, -8619.10, -9072.28, -8716.13, -154956.28, -159994.55, -162051.14, -161882.03, 0.00, 0.00, 0.00
195, -8446.61, -8584.46, -9038.55, -8683.63, -154922.53, -159961.17, -162015.73, -161846.31, 0.00, 0.00, 0.00
196, -8412.75, -8553.32, -9007.95, -8654.35, -154891.97, -159931.22, -161983.88, -161814.36, 0.00, 0.00, 0.00
197, -8447.19, -8584.81, -9038.51, -8683.81, -154922.78, -159961.75, -162016.09, -161846.89, 0.03, -0.03, 0.99
198, -8483.58, -8617.96, -9070.87, -8714.77, -154955.34, -159993.61, -162050.19, -161881.03, 0.00, 0.00, 0.00
199, -8455.87, -8592.66, -9046.44, -8691.18, -154930.78, -159969.34, -162024.42, -161854.92, 0.00, 0.00, 0.00
200, -8412.95, -8553.52, -9008.11, -8654.46, -154892.36, -159931.64, -161984.36, -161814.80, 0.00, 0.00, 0.00
201, -8434.79, -8573.28, -9027.15, -8672.83, -154911.70, -159950.70, -162004.66, -161835.31, 0.00, 0.00, 0.00
202, -8477.70, -8612.19, -9065.22, -8709.20, -154949.91, -159988.33, -162044.69, -161875.55, 0.00, 0.00, 0.00
203, -8458.10, -8594.16, -9047.81, -8692.24, -154932.39, -159970.92, -162026.47, -161857.05, 0.00, 0.00, 0.00
204, -8408.41, -8548.58, -9003.10, -8649.34, -154887.66, -159926.81, -161979.78, -161810.23, 0.00, 0.00, 0.00
205, -8421.82, -8560.96, -9015.02, -8661.01, -154899.73, -159938.95, -161992.34, -161823.09, 0.00, 0.00, 0.00
206, -8471.33, -8606.18, -9059.16, -8703.46, -154944.13, -159982.58, -162038.66, -161869.63, 0.00, 0.00, 0.00
207, -8466.48, -8601.82, -9055.16, -8699.52, -154940.16, -159978.45, -162034.42, -161865.03, 0.03, -0.03, 0.98
208, -8417.04, -8556.76, -9011.13, -8657.28, -154896.00, -159935.08, -161988.31, -161818.67, 0.00, 0.00, 0.00
209, -8415.68, -8555.58, -9009.63, -8655.98, -154894.66, -159934.03, -161986.97, -161817.64, 0.00, 0.00, 0.00
210, -8462.97, -8598.54, -9051.50, -8696.06, -154936.75, -159975.41, -162030.98, -161861.98, 0.00, 0.00, 0.00
211, -8471.49, -8606.36, -9059.32, -8703.46, -154944.64, -159982.94, -162039.13, -161869.92, 0.00, 0.00, 0.00
212, -8423.86, -8562.91, -9017.01, -8662.78, -154902.09, -159941.08, -161994.69, -161825.19, 0.00, 0.00, 0.00
213, -8411.97, -8552.18, -9006.32, -8652.76, -154891.50, -159930.91, -161983.63, -161814.27, 0.00, 0.00, 0.00
214, -8459.49, -8595.65, -9048.66, -8693.53, -154934.17, -159972.97, -162028.17, -161859.13, 0.00, 0.00, 0.00
215, -8478.20, -8612.66, -9065.44, -8709.49, -154951.05, -159989.33, -162045.77, -161876.61, 0.00, 0.00, 0.00
216, -8432.11, -8570.33, -9024.18, -8669.71, -154909.63, -159948.45, -162002.59, -161833.00, 0.00, 0.00, 0.00
217, -8405.73, -8546.17, -9000.31, -8646.97, -154885.83, -159925.14, -161977.78, -161808.31, 0.03, -0.03, 0.98
218, -8445.36, -8582.42, -9035.56, -8680.86, -154921.33, -159960.20, -162014.95, -161845.72, 0.00, 0.00, 0.00
219, -8475.20, -8609.51, -9062.16, -8706.27, -154948.03, -159986.31, -162042.81, -161873.61, 0.00, 0.00, 0.00
220, -8441.07, -8578.38, -9032.05, -8677.19, -154917.88, -159956.47, -162011.05, -161841.47, 0.00, 0.00, 0.00
221, -8404.46, -8544.98, -8999.17, -8645.70, -154884.94, -159924.31, -161976.78, -161807.20, 0.00, 0.00, 0.00
222, -8436.84, -8574.60, -9028.03, -8673.64, -154913.92, -159953.03, -162007.14, -161837.89, 0.00, 0.00, 0.00
223, -8475.16, -8609.47, -9062.09, -8706.16, -154948.03, -159986.50, -162042.81, -161873.72, 0.00, 0.00, 0.00
224, -8451.10, -8587.70, -9040.97, -8685.91, -154926.91, -159965.63, -162020.61, -161851.19, 0.00, 0.00, 0.00
225, -8407.61, -8548.07, -9002.14, -8648.92, -154888.16, -159927.55, -161980.05, -161810.44, 0.00, 0.00, 0.00
226, -8424.73, -8563.44, -9016.94, -8663.11, -154903.11, -159942.42, -161995.88, -161826.56, 0.00, 0.00, 0.00
227, -8472.83, -8607.46, -9060.10, -8704.46, -154946.38, -159985.00, -162041.02, -161871.94, 0.03, -0.03, 0.98
228, -8462.95, -8598.81, -9051.90, -8696.64, -154938.13, -159976.64, -162032.14, -161862.75, 0.00, 0.00, 0.00
229, -8412.32, -8552.38, -9006.46, -8653.01, -154892.64, -159931.86, -161984.63, -161815.14, 0.00, 0.00, 0.00
230, -8416.77, -8556.18, -9009.74, -8656.16, -154896.09, -159935.52, -161988.50, -161819.27, 0.00, 0.00, 0.00
231, -8464.96, -8600.01, -9052.43, -8697.17, -154939.06, -159977.89, -162033.53, -161864.56, 0.00, 0.00, 0.00
232, -8464.20, -8599.43, -9052.17, -8696.73, -154938.75, -159977.27, -162033.02, -161863.80, 0.00, 0.00, 0.00
233, -8416.21, -8555.84, -9009.70, -8655.96, -154896.16, -159935.31, -161988.34, -161818.84, 0.00, 0.00, 0.00
234, -8408.68, -8548.71, -9002.41, -8649.03, -154888.98, -159928.42, -161981.08, -161811.78, 0.00, 0.00, 0.00
235, -8456.02, -8591.74, -9044.45, -8689.37, -154931.17, -159970.02, -162025.31, -161856.17, 0.00, 0.00, 0.00
236, -8468.54, -8603.19, -9055.88, -8700.28, -154942.56, -159981.06, -162037.11, -161867.81, 0.00, 0.00, 0.00
237, -8425.07, -8563.89, -9017.50, -8663.60, -154904.11, -159943.28, -161996.81, -161827.16, 0.03, -0.04, 0.99
238, -8405.95, -8546.35, -9000.09, -8646.97, -154886.78, -159926.38, -161978.70, -161809.28, 0.00, 0.00, 0.00
239, -8449.23, -8585.80, -9038.53, -8683.90, -154925.55, -159964.52, -162019.20, -161850.25, 0.00, 0.00, 0.00
240, -8473.68, -8608.15, -9060.59, -8704.89, -154947.67, -159986.11, -162042.16, -161873.14, 0.00, 0.00, 0.00
241, -8431.88, -8569.88, -9023.26, -8668.95, -154910.30, -159949.17, -162003.03, -161833.64, 0.00, 0.00, 0.00
242, -8402.38, -8542.93, -8996.73, -8643.62, -154883.72, -159923.28, -161975.47, -161806.16, 0.00, 0.00, 0.00
243, -8436.67, -8573.97, -9026.77, -8672.57, -154914.03, -159953.22, -162007.42, -161838.41, 0.00, 0.00, 0.00
244, -8473.64, -8607.88, -9060.15, -8704.57, -154947.47, -159985.95, -162042.20, -161873.11, 0.00, 0.00, 0.00
245, -8443.97, -8580.99, -9034.24, -8679.58, -154921.50, -159960.20, -162014.80, -161845.36, 0.00, 0.00, 0.00
246, -8405.08, -8545.61, -8999.46, -8646.26, -154886.67, -159926.02, -161978.33, -161808.92, 0.03, -0.04, 0.99
247, -8431.66, -8569.68, -9022.75, -8668.77, -154910.17, -159949.33, -162003.03, -161833.86, 0.00, 0.00, 0.00
248, -8472.74, -8607.14, -9059.41, -8703.88, -154946.98, -159985.52, -162041.63, -161872.48, 0.00, 0.00, 0.00
249, -8448.53, -8584.77, -9037.73, -8682.85, -154925.23, -159963.89, -162019.00, -161849.53, 0.00, 0.00, 0.00
250, -8402.20, -8542.46, -8996.29, -8643.06, -154883.70, -159923.16, -161975.58, -161806.02, 0.00, 0.00, 0.00
251, -8419.32, -8558.19, -9011.37, -8657.79, -154899.14, -159938.42, -161991.63, -161822.33, 0.00, 0.00, 0.00
252, -8468.79, -8603.43, -9055.70, -8700.30, -154943.58, -159982.14, -162038.05, -161868.95, 0.00, 0.00, 0.00
253, -8460.22, -8595.72, -9048.37, -8693.24, -154936.19, -159974.80, -162030.25, -161860.91, 0.00, 0.00, 0.00
254, -8409.80, -8549.61, -9003.33, -8649.92, -154890.97, -159930.38, -161983.06, -161813.38, 0.00, 0.00, 0.00
255, -8412.17, -8551.69, -9005.00, -8651.62, -154892.80, -159932.36, -161985.17, -161815.81, 0.00, 0.00, 0.00
0, -8461.79, -8596.95, -9049.15, -8694.11, -154937.23, -159976.09, -162031.61, -161862.47, 0.04, -0.04, 0.99
1, -8466.33, -8601.20, -9053.53, -8698.38, -154941.73, -159980.27, -162036.03, -161866.67, 0.00, 0.00, 0.00
2, -8418.54, -8557.63, -9011.11, -8657.66, -154899.13, -159938.38, -161991.52, -161821.84, 0.00, 0.00, 0.00
3, -8409.75, -8549.59, -9003.06, -8649.92, -154891.03, -159930.66, -161983.13, -161813.73, 0.00, 0.00, 0.00
4, -8456.78, -8592.39, -9044.83, -8690.00, -154933.13, -159972.02, -162027.09, -161857.97, 0.00, 0.00, 0.00
5, -8473.39, -8607.75, -9059.85, -8704.48, -154948.41, -159986.88, -162042.97, -161873.58, 0.00, 0.00, 0.00
6, -8428.62, -8566.95, -9020.22, -8666.31, -154908.56, -159947.67, -162001.23, -161831.59, 0.00, 0.00, 0.00
7, -8406.47, -8546.61, -9000.15, -8647.17, -154888.44, -159928.09, -161980.38, -161810.64, 0.00, 0.00, 0.00
8, -8445.14, -8581.62, -9034.04, -8679.67, -154922.59, -159961.66, -162016.25, -161846.94, 0.00, 0.00, 0.00
9, -8472.00, -8606.11, -9058.18, -8702.56, -154946.80, -159985.22, -162041.45, -161872.22, 0.00, 0.00, 0.00
10, -8437.43, -8574.87, -9027.82, -8673.59, -154916.50, -159955.36, -162009.50, -161839.88, 0.03, -0.05, 0.99
11, -8404.52, -8544.87, -8998.30, -8645.36, -154886.94, -159926.59, -161978.81, -161809.17, 0.00, 0.00, 0.00
12, -8438.83, -8576.27, -9028.76, -8674.73, -154917.56, -159956.95, -162010.84, -161841.58, 0.00, 0.00, 0.00
13, -8479.09, -8613.22, -9065.11, -8709.63, -154954.05, -159992.75, -162048.83, -161879.52, 0.00, 0.00, 0.00
14, -8451.35, -8587.83, -9040.65, -8686.04, -154929.44, -159968.36, -162022.92, -161853.22, 0.00, 0.00, 0.00
15, -8407.09, -8547.13, -9000.71, -8647.69, -154889.45, -159929.13, -161981.30, -161811.61, 0.00, 0.00, 0.00
16, -8428.46, -8566.44, -9019.29, -8665.68, -154908.25, -159947.72, -162001.08, -161831.75, 0.00, 0.00, 0.00
17, -8475.25, -8609.36, -9061.29, -8705.98, -154950.36, -159989.13, -162044.98, -161875.78, 0.00, 0.00, 0.00
18, -8459.13, -8594.71, -9047.29, -8692.44, -154936.39, -159975.13, -162030.16, -161860.58, 0.00, 0.00, 0.00
19, -8411.16, -8550.79, -9004.36, -8651.26, -154893.25, -159932.84, -161985.23, -161815.47, 0.00, 0.00, 0.00
20, -8423.01, -8561.70, -9014.66, -8661.30, -154903.63, -159943.36, -161996.19, -161826.80, 0.03, -0.04, 0.99
21, -8468.20, -8602.54, -9054.51, -8699.30, -154943.73, -159982.66, -162038.16, -161868.95, 0.00, 0.00, 0.00
22, -8463.51, -8598.27, -9050.53, -8695.39, -154939.69, -159978.52, -162033.98, -161864.42, 0.00, 0.00, 0.00
23, -8414.65, -8553.83, -9007.15, -8653.81, -154896.27, -159935.78, -161988.47, -161818.72, 0.00, 0.00, 0.00
24, -8412.82, -8552.13, -9005.25, -8652.07, -154894.50, -159934.17, -161986.70, -161817.22, 0.00, 0.00, 0.00
25, -8463.82, -8598.89, -9050.87, -8695.95, -154940.36, -159979.34, -162034.56, -161865.27, 0.00, 0.00, 0.00
26, -8472.94, -8607.25, -9059.36, -8704.08, -154948.84, -159987.72, -162043.28, -161873.83, 0.00, 0.00, 0.00
27, -8425.18, -8563.67, -9016.94, -8663.29, -154906.22, -159945.72, -161998.78, -161829.03, 0.00, 0.00, 0.00
28, -8408.08, -8547.78, -9001.02, -8647.98, -154890.36, -159930.23, -161982.34, -161812.81, 0.00, 0.00, 0.00
29, -8451.13, -8586.71, -9038.87, -8684.26, -154928.47, -159967.67, -162022.36, -161853.06, 0.00, 0.00, 0.00
30, -8472.18, -8606.02, -9057.98, -8702.56, -154947.61, -159986.31, -162042.23, -161872.84, 0.03, -0.04, 0.98
31, -8431.84, -8569.50, -9022.46, -8668.59, -154911.86, -159951.25, -162004.83, -161835.05, 0.00, 0.00, 0.00
32, -8405.57, -8545.38, -8998.77, -8645.97, -154888.22, -159928.17, -161980.27, -161810.44, 0.00, 0.00, 0.00
33, -8446.37, -8582.64, -9035.02, -8680.90, -154924.81, -159964.19, -162018.30, -161848.94, 0.00, 0.00, 0.00
34, -8477.50, -8611.01, -9062.89, -8707.50, -154952.72, -159991.45, -162047.50, -161877.94, 0.00, 0.00, 0.00
35, -8440.71, -8577.33, -9030.22, -8675.96, -154920.03, -159959.05, -162013.19, -161843.30, 0.00, 0.00, 0.00
36, -8402.33, -8542.05, -8995.62, -8642.79, -154885.38, -159925.19, -161977.16, -161807.27, 0.00, 0.00, 0.00
37, -8432.89, -8569.84, -9022.48, -8668.72, -154912.52, -159952.03, -162005.55, -161836.06, 0.00, 0.00, 0.00
38, -8474.98, -8608.35, -9060.21, -8704.93, -154950.48, -159989.22, -162045.11, -161875.73, 0.00, 0.00, 0.00
39, -8449.05, -8584.70, -9037.32, -8682.83, -154927.47, -159966.44, -162021.02, -161851.19, 0.00, 0.00, 0.00
40, -8404.79, -8544.33, -8997.78, -8644.89, -154887.75, -159927.53, -161979.55, -161809.66, 0.04, -0.04, 0.98
41, -8422.96, -8560.76, -9013.54, -8660.05, -154903.64, -159943.33, -161996.47, -161826.77, 0.00, 0.00, 0.00
42, -8469.79, -8603.45, -9055.14, -8700.01, -154945.50, -159984.42, -162040.06, -161870.70, 0.00, 0.00, 0.00
43, -8457.21, -8592.05, -9044.32, -8689.55, -154934.63, -159973.58, -162028.50, -161858.83, 0.00, 0.00, 0.00
44, -8408.03, -8547.17, -9000.47, -8647.55, -154890.75, -159930.38, -161982.59, -161812.70, 0.00, 0.00, 0.00
45, -8417.47, -8555.91, -9008.85, -8655.67, -154899.17, -159938.89, -161991.41, -161821.80, 0.00, 0.00, 0.00
46, -8467.78, -8601.71, -9053.48, -8698.54, -154943.98, -159983.00, -162038.31, -161868.80, 0.00, 0.00, 0.00
47, -8467.78, -8601.80, -9053.84, -8698.83, -154944.33, -159983.19, -162038.61, -161868.83, 0.00, 0.00, 0.00
48, -8417.09, -8555.53, -9008.69, -8655.49, -154899.02, -159938.66, -161991.30, -161821.38, 0.00, 0.00, 0.00
49, -8409.98, -8548.89, -9001.81, -8649.05, -154892.33, -159932.14, -161984.45, -161814.69, 0.00, 0.00, 0.00
50, -8460.72, -8595.30, -9047.00, -8692.48, -154937.73, -159976.92, -162031.86, -161862.30, 0.03, -0.04, 0.98
51, -8475.45, -8609.00, -9060.77, -8705.65, -154951.47, -159990.25, -162045.94, -161876.25, 0.00, 0.00, 0.00
52, -8427.03, -8564.76, -9017.77, -8664.23, -154908.33, -159947.72, -162000.78, -161830.84, 0.00, 0.00, 0.00
53, -8407.94, -8547.28, -9000.35, -8647.62, -154891.02, -159930.80, -161982.84, -161813.08, 0.00, 0.00, 0.00
54, -8450.90, -8586.24, -9038.11, -8683.81, -154928.94, -159968.20, -162022.52, -161853.11, 0.00, 0.00, 0.00
55, -8476.00, -8609.13, -9060.64, -8705.38, -154951.58, -159990.41, -162046.05, -161876.56, 0.00, 0.00, 0.00
56, -8433.11, -8570.04, -9022.66, -8668.90, -154913.55, -159952.81, -162006.31, -161836.44, 0.00, 0.00, 0.00
57, -8403.07, -8542.70, -8995.75, -8643.24, -154886.67, -159926.59, -161978.33, -161808.55, 0.00, 0.00, 0.00
58, -8441.34, -8577.46, -9029.46, -8675.78, -154920.67, -159960.23, -162013.78, -161844.38, 0.00, 0.00, 0.00
59, -8475.71, -8608.82, -9060.10, -8704.98, -154951.41, -159990.27, -162045.77, -161876.36, 0.00, 0.00, 0.00
60, -8443.21, -8579.29, -9031.58, -8677.42, -154922.64, -159961.86, -162015.73, -161845.94, 0.03, -0.04, 0.98
61, -8403.85, -8543.42, -8996.38, -8643.73, -154887.45, -159927.33, -161979.11, -161809.22, 0.00, 0.00, 0.00
62, -8431.68, -8568.81, -9020.85, -8667.42, -154912.17, -159951.73, -162004.95, -161835.45, 0.00, 0.00, 0.00
63, -8475.31, -8608.60, -9059.68, -8704.62, -154951.14, -159989.98, -162045.66, -161876.22, 0.00, 0.00, 0.00
64, -8453.12, -8588.21, -9040.21, -8685.75, -154931.58, -159970.64, -162025.05, -161855.17, 0.00, 0.00, 0.00
65, -8405.98, -8545.38, -8998.37, -8645.61, -154889.69, -159929.50, -161981.41, -161811.36, 0.00, 0.00, 0.00
66, -8420.62, -8558.50, -9010.79, -8657.75, -154902.36, -159942.02, -161994.80, -161825.11, 0.00, 0.00, 0.00
67, -8468.83, -8602.31, -9053.44, -8698.61, -154945.14, -159984.06, -162039.41, -161869.97, 0.00, 0.00, 0.00
68, -8459.31, -8593.60, -9045.21, -8690.56, -154936.97, -159975.78, -162030.61, -161860.95, 0.00, 0.00, 0.00
