%OpenBCI Raw EEG Data
%
%Sample Rate = 250.0 Hz
%First Column = SampleIndex
%Other Columns = EEG data in microvolts followed by Accel Data (in G) interleaved with Aux Data
0, -174289.55, -179733.14, -173106.00, -179789.31, -179881.06, -179788.75, -180029.23, -179855.58, 0.02, 0.05, 0.51
1, -174377.55, -179763.55, -173198.98, -179820.47, -179911.42, -179819.08, -180059.50, -179885.84, 0.00, 0.00, 0.00
2, -174174.70, -179709.00, -173060.41, -179763.09, -179857.03, -179764.77, -180005.09, -179831.44, 0.00, 0.00, 0.00
3, -174059.67, -179678.00, -172953.14, -179728.67, -179825.88, -179733.66, -179973.98, -179800.36, 0.00, 0.00, 0.00
4, -174253.45, -179731.91, -173070.27, -179787.41, -179879.77, -179787.39, -180027.97, -179854.31, 0.00, 0.00, 0.00
5, -174395.50, -179774.81, -173226.17, -179832.00, -179922.73, -179830.31, -180070.92, -179897.27, 0.00, 0.00, 0.00
6, -174226.13, -179732.09, -173091.08, -179786.72, -179880.03, -179787.75, -180028.23, -179854.58, 0.00, 0.00, 0.00
7, -174061.52, -179687.03, -172956.70, -179736.34, -179834.95, -179742.58, -179982.97, -179809.41, 0.04, 0.10, 1.03
8, -174212.31, -179726.69, -173019.23, -179780.64, -179874.66, -179782.25, -180022.73, -179849.14, 0.00, 0.00, 0.00
9, -174398.63, -179779.45, -173224.98, -179836.59, -179927.38, -179835.00, -180075.50, -179901.94, 0.00, 0.00, 0.00
10, -174273.28, -179750.69, -173113.92, -179806.23, -179898.44, -179806.23, -180046.78, -179873.06, 0.00, 0.00, 0.00
11, -174071.30, -179693.95, -173001.63, -179744.88, -179841.69, -179749.58, -179989.97, -179816.33, 0.00, 0.00, 0.00
12, -174175.16, -179719.34, -172994.42, -179772.59, -179867.08, -179774.88, -180015.41, -179841.70, 0.00, 0.00, 0.00
13, -174394.34, -179782.98, -173226.19, -179840.03, -179930.84, -179838.38, -180079.03, -179905.36, 0.00, 0.00, 0.00
14, -174322.39, -179768.97, -173152.88, -179825.23, -179916.97, -179824.58, -180065.09, -179891.48, 0.00, 0.00, 0.00
15, -174097.06, -179707.73, -173032.30, -179759.47, -179855.52, -179763.31, -180003.73, -179830.11, 0.00, 0.00, 0.00
16, -174140.72, -179718.92, -172977.13, -179771.30, -179866.72, -179774.45, -180014.89, -179841.25, 0.00, 0.00, 0.00
17, -174374.95, -179787.23, -173207.17, -179843.97, -179935.11, -179842.73, -180083.19, -179909.61, 0.04, 0.10, 1.03
18, -174359.94, -179787.66, -173190.39, -179844.16, -179935.53, -179843.20, -180083.66, -179910.02, 0.00, 0.00, 0.00
19, -174129.11, -179724.42, -173063.25, -179776.91, -179872.23, -179779.98, -180020.42, -179846.78, 0.00, 0.00, 0.00
20, -174116.42, -179716.72, -172973.27, -179768.45, -179864.45, -179772.22, -180012.63, -179839.05, 0.00, 0.00, 0.00
21, -174349.33, -179781.83, -173181.95, -179838.31, -179929.69, -179837.33, -180077.81, -179904.20, 0.00, 0.00, 0.00
22, -174394.55, -179800.28, -173226.89, -179857.08, -179948.20, -179855.92, -180096.38, -179922.63, 0.00, 0.00, 0.00
23, -174173.75, -179741.08, -173078.69, -179793.81, -179888.89, -179796.73, -180037.19, -179863.39, 0.00, 0.00, 0.00
24, -174098.80, -179717.09, -172965.09, -179767.00, -179864.84, -179772.75, -180013.05, -179839.38, 0.00, 0.00, 0.00
25, -174313.05, -179776.14, -173136.52, -179831.84, -179923.98, -179831.72, -180072.13, -179898.55, 0.00, 0.00, 0.00
26, -174416.05, -179811.98, -173248.00, -179868.92, -179959.88, -179867.56, -180108.05, -179934.38, 0.00, 0.00, 0.00
27, -174220.38, -179760.66, -173111.06, -179814.80, -179908.48, -179816.33, -180056.81, -179882.98, 0.05, 0.10, 1.03
28, -174092.34, -179722.38, -172999.67, -179773.02, -179870.22, -179778.06, -180018.47, -179844.72, 0.00, 0.00, 0.00
29, -174275.61, -179772.17, -173100.48, -179827.28, -179920.05, -179827.83, -180068.19, -179894.59, 0.00, 0.00, 0.00
30, -174430.59, -179820.72, -173269.42, -179877.72, -179968.58, -179876.28, -180116.67, -179943.14, 0.00, 0.00, 0.00
31, -174271.56, -179783.20, -173144.03, -179837.84, -179931.02, -179838.84, -180079.19, -179905.59, 0.00, 0.00, 0.00
32, -174094.58, -179731.53, -173027.89, -179781.75, -179879.30, -179787.30, -180027.47, -179853.84, 0.00, 0.00, 0.00
33, -174234.25, -179768.02, -173065.17, -179822.23, -179915.75, -179823.59, -180064.02, -179890.34, 0.00, 0.00, 0.00
34, -174429.86, -179824.84, -173277.11, -179881.80, -179972.64, -179880.39, -180120.81, -179947.16, 0.00, 0.00, 0.00
35, -174317.94, -179799.58, -173175.45, -179854.94, -179947.34, -179855.09, -180095.53, -179921.91, 0.00, 0.00, 0.00
36, -174110.42, -179743.94, -173039.98, -179793.41, -179891.69, -179799.55, -180039.89, -179866.25, 0.00, 0.00, 0.00
37, -174200.08, -179766.80, -173023.73, -179818.91, -179914.69, -179822.39, -180062.70, -179889.22, 0.04, 0.10, 1.03
38, -174423.75, -179829.19, -173261.70, -179886.09, -179977.17, -179884.80, -180125.23, -179951.61, 0.00, 0.00, 0.00
39, -174366.22, -179820.53, -173201.36, -179876.58, -179968.47, -179876.08, -180116.61, -179942.88, 0.00, 0.00, 0.00
40, -174137.11, -179756.66, -173078.56, -179807.86, -179904.63, -179812.22, -180052.55, -179878.92, 0.00, 0.00, 0.00
41, -174167.22, -179764.59, -173011.53, -179815.69, -179912.66, -179820.16, -180060.44, -179886.86, 0.00, 0.00, 0.00
42, -174401.77, -179830.69, -173240.08, -179887.22, -179978.70, -179886.14, -180126.67, -179953.02, 0.00, 0.00, 0.00
43, -174402.23, -179836.59, -173238.06, -179893.05, -179984.59, -179892.06, -180132.52, -179958.94, 0.00, 0.00, 0.00
44, -174173.75, -179774.78, -173111.02, -179826.81, -179922.70, -179830.38, -180070.72, -179897.16, 0.00, 0.00, 0.00
45, -174144.14, -179764.95, -173011.75, -179815.44, -179912.78, -179820.50, -180060.70, -179887.33, 0.00, 0.00, 0.00
46, -174372.75, -179828.14, -173212.58, -179884.36, -179976.11, -179883.75, -180124.09, -179950.58, 0.00, 0.00, 0.00
47, -174431.88, -179849.97, -173273.48, -179906.70, -179997.91, -179905.55, -180145.89, -179972.23, 0.04, 0.10, 1.03
48, -174215.33, -179794.55, -173142.03, -179848.13, -179942.41, -179850.17, -180090.48, -179916.81, 0.00, 0.00, 0.00
49, -174125.94, -179768.86, -173047.78, -179819.95, -179916.69, -179824.52, -180064.80, -179891.13, 0.00, 0.00, 0.00
50, -174334.30, -179823.84, -173181.67, -179879.53, -179971.66, -179879.38, -180119.77, -179946.05, 0.00, 0.00, 0.00
51, -174451.38, -179860.06, -173307.42, -179916.98, -180007.95, -179915.58, -180155.88, -179982.25, 0.00, 0.00, 0.00
52, -174265.30, -179811.98, -173163.08, -179866.05, -179959.86, -179867.59, -180107.88, -179934.23, 0.00, 0.00, 0.00
53, -174123.89, -179772.27, -173038.22, -179821.95, -179920.06, -179827.89, -180068.03, -179894.44, 0.00, 0.00, 0.00
54, -174298.06, -179818.58, -173133.03, -179873.22, -179966.38, -179874.11, -180114.44, -179940.83, 0.00, 0.00, 0.00
55, -174463.50, -179869.13, -173316.89, -179926.16, -180016.94, -179924.70, -180164.98, -179991.42, 0.00, 0.00, 0.00
56, -174313.53, -179830.66, -173199.27, -179885.78, -179978.52, -179886.36, -180126.48, -179953.03, 0.00, 0.00, 0.00
57, -174128.13, -179777.78, -173079.08, -179828.55, -179925.70, -179833.50, -180073.67, -179900.16, 0.04, 0.10, 1.03
58, -174256.41, -179813.00, -173099.33, -179866.92, -179960.86, -179868.61, -180108.89, -179935.25, 0.00, 0.00, 0.00
59, -174460.61, -179874.61, -173320.86, -179931.45, -180022.53, -179930.13, -180170.39, -179996.83, 0.00, 0.00, 0.00
60, -174363.03, -179850.69, -173227.11, -179906.30, -179998.56, -179906.23, -180146.45, -179972.91, 0.00, 0.00, 0.00
61, -174148.52, -179791.30, -173092.73, -179841.39, -179939.16, -179847.03, -180087.11, -179913.52, 0.00, 0.00, 0.00
62, -174222.95, -179811.16, -173064.13, -179863.05, -179958.94, -179866.77, -180106.94, -179933.38, 0.00, 0.00, 0.00
63, -174450.64, -179876.00, -173302.25, -179932.75, -180023.88, -179931.58, -180171.84, -179998.28, 0.00, 0.00, 0.00
64, -174405.53, -179866.19, -173256.13, -179922.48, -180014.11, -179921.86, -180162.05, -179988.44, 0.00, 0.00, 0.00
65, -174175.63, -179806.33, -173149.08, -179858.77, -179954.20, -179861.95, -180102.13, -179928.61, 0.00, 0.00, 0.00
66, -174191.25, -179808.11, -173076.02, -179860.59, -179955.98, -179863.67, -180103.98, -179930.36, 0.00, 0.00, 0.00
67, -174426.73, -179873.16, -173291.42, -179929.91, -180021.08, -179928.78, -180169.03, -179995.31, 0.04, 0.10, 1.04
68, -174442.70, -179884.52, -173303.50, -179941.17, -180032.44, -179940.19, -180180.41, -180006.69, 0.00, 0.00, 0.00
69, -174216.28, -179821.34, -173152.98, -179873.73, -179969.25, -179877.02, -180117.19, -179943.56, 0.00, 0.00, 0.00
70, -174172.59, -179806.23, -173055.48, -179856.70, -179954.05, -179861.94, -180102.02, -179928.45, 0.00, 0.00, 0.00
71, -174397.00, -179868.22, -173248.52, -179924.19, -180016.14, -179923.88, -180163.97, -179990.45, 0.00, 0.00, 0.00
72, -174469.59, -179895.94, -173325.77, -179952.64, -180043.91, -179951.55, -180191.69, -180018.16, 0.00, 0.00, 0.00
73, -174259.45, -179841.77, -173190.34, -179894.92, -179989.63, -179897.39, -180137.48, -179963.98, 0.00, 0.00, 0.00
74, -174158.11, -179811.75, -173076.44, -179861.64, -179959.61, -179867.31, -180107.47, -179933.97, 0.00, 0.00, 0.00
75, -174358.95, -179865.64, -173210.09, -179920.83, -180013.48, -179921.05, -180161.41, -179987.89, 0.00, 0.00, 0.00
76, -174489.38, -179906.70, -173352.56, -179963.52, -180054.61, -179962.22, -180202.42, -180028.86, 0.00, 0.00, 0.00
77, -174310.88, -179861.17, -173216.78, -179915.47, -180009.00, -179916.72, -180156.91, -179983.38, 0.04, 0.10, 1.04
78, -174156.45, -179818.08, -173107.45, -179868.53, -179965.91, -179873.73, -180113.69, -179940.28, 0.00, 0.00, 0.00
79, -174318.03, -179862.63, -173175.23, -179917.28, -180010.53, -179918.27, -180158.36, -179984.94, 0.00, 0.00, 0.00
80, -174493.48, -179916.34, -173367.20, -179973.25, -180064.19, -179971.86, -180212.08, -180038.53, 0.00, 0.00, 0.00
81, -174356.77, -179880.63, -173252.55, -179935.81, -180028.59, -179936.25, -180176.53, -180002.95, 0.00, 0.00, 0.00
82, -174162.38, -179828.39, -173135.84, -179878.55, -179976.22, -179883.97, -180124.14, -179950.63, 0.00, 0.00, 0.00
83, -174278.25, -179859.56, -173139.78, -179913.08, -180007.38, -179915.16, -180155.41, -179981.78, 0.00, 0.00, 0.00
84, -174491.50, -179919.00, -173369.05, -179975.92, -180067.02, -179974.50, -180214.83, -180041.22, 0.00, 0.00, 0.00
85, -174405.98, -179899.84, -173281.92, -179955.47, -180047.77, -179955.36, -180195.63, -180022.00, 0.00, 0.00, 0.00
86, -174186.05, -179840.20, -173145.75, -179890.72, -179988.00, -179895.73, -180135.83, -179962.25, 0.00, 0.00, 0.00
87, -174246.91, -179855.67, -173108.38, -179907.59, -180003.52, -179911.33, -180151.39, -179977.83, 0.04, 0.11, 1.03
88, -174477.17, -179921.81, -173344.19, -179978.39, -180069.64, -179977.33, -180217.55, -180043.94, 0.00, 0.00, 0.00
89, -174448.63, -179919.59, -173313.39, -179975.75, -180067.55, -179975.13, -180215.42, -180041.70, 0.00, 0.00, 0.00
90, -174217.38, -179858.58, -173204.72, -179911.02, -180006.50, -179914.19, -180154.42, -179980.73, 0.00, 0.00, 0.00
91, -174218.19, -179856.22, -173120.31, -179908.11, -180004.11, -179911.80, -180152.02, -179978.45, 0.00, 0.00, 0.00
92, -174454.17, -179920.27, -173331.33, -179976.69, -180068.19, -179975.84, -180216.05, -180042.56, 0.00, 0.00, 0.00
93, -174484.80, -179933.33, -173359.23, -179989.83, -180081.31, -179988.89, -180229.08, -180055.56, 0.00, 0.00, 0.00
94, -174260.66, -179876.23, -173210.20, -179928.70, -180024.20, -179931.94, -180171.95, -179998.39, 0.00, 0.00, 0.00
95, -174202.00, -179859.39, -173104.36, -179909.20, -180007.13, -179914.95, -180154.97, -179981.42, 0.00, 0.00, 0.00
96, -174420.42, -179920.00, -173286.63, -179975.72, -180067.86, -179975.66, -180215.78, -180042.14, 0.00, 0.00, 0.00
97, -174507.78, -179950.02, -173381.02, -180006.75, -180097.97, -180005.66, -180245.83, -180072.16, 0.03, 0.10, 1.03
98, -174304.64, -179896.27, -173248.52, -179949.75, -180044.13, -179951.91, -180191.95, -180018.48, 0.00, 0.00, 0.00
99, -174189.84, -179863.83, -173130.02, -179913.45, -180011.63, -179919.47, -180159.39, -179985.88, 0.00, 0.00, 0.00
100, -174383.09, -179916.83, -173249.86, -179971.64, -180064.63, -179972.38, -180212.47, -180038.92, 0.00, 0.00, 0.00
101, -174525.95, -179958.00, -173405.63, -180014.73, -180105.92, -180013.48, -180253.67, -180080.11, 0.00, 0.00, 0.00
102, -174356.59, -179916.66, -173274.77, -179971.08, -180064.64, -179972.27, -180212.39, -180038.89, 0.00, 0.00, 0.00
103, -174191.92, -179871.50, -173161.59, -179921.41, -180019.36, -179927.05, -180167.03, -179993.55, 0.00, 0.00, 0.00
104, -174341.67, -179911.80, -173212.94, -179965.80, -180059.61, -179967.19, -180207.38, -180033.84, 0.00, 0.00, 0.00
105, -174527.69, -179963.92, -173415.58, -180020.75, -180111.83, -180019.41, -180259.59, -180085.98, 0.00, 0.00, 0.00
106, -174402.19, -179935.50, -173303.22, -179990.70, -180083.34, -179990.98, -180231.20, -180057.56, 0.00, 0.00, 0.00
107, -174200.73, -179880.22, -173189.88, -179930.73, -180028.00, -179935.78, -180175.89, -180002.22, 0.00, 0.00, 0.00
108, -174304.78, -179906.95, -173186.70, -179960.23, -180054.73, -179962.53, -180202.63, -180028.97, 0.04, 0.10, 1.03
109, -174523.84, -179969.13, -173414.70, -180026.00, -180117.08, -180024.72, -180264.89, -180091.22, 0.00, 0.00, 0.00
110, -174451.50, -179955.14, -173343.86, -180010.89, -180103.09, -180010.70, -180250.89, -180077.19, 0.00, 0.00, 0.00
111, -174226.25, -179893.81, -173203.81, -179943.78, -180041.64, -179949.34, -180189.34, -180015.78, 0.00, 0.00, 0.00
112, -174270.58, -179903.98, -173145.84, -179954.89, -180051.81, -179959.44, -180199.56, -180025.86, 0.00, 0.00, 0.00
113, -174503.95, -179969.58, -173385.84, -180025.86, -180117.44, -180024.94, -180265.22, -180091.55, 0.00, 0.00, 0.00
114, -174489.77, -179970.47, -173369.28, -180026.47, -180118.22, -180025.80, -180266.08, -180092.48, 0.00, 0.00, 0.00
115, -174259.64, -179909.13, -173241.80, -179960.84, -180056.84, -179964.53, -180204.67, -180031.00, 0.00, 0.00, 0.00
116, -174246.11, -179903.22, -173151.05, -179953.58, -180050.98, -179958.56, -180198.73, -180025.09, 0.00, 0.00, 0.00
117, -174478.61, -179966.20, -173360.50, -180022.19, -180113.97, -180021.50, -180261.81, -180088.20, 0.00, 0.00, 0.00
118, -174524.30, -179983.50, -173406.97, -180040.02, -180131.39, -180038.95, -180279.11, -180105.56, 0.04, 0.10, 1.04
119, -174303.91, -179926.11, -173270.52, -179979.09, -180074.03, -179981.73, -180221.80, -180048.19, 0.00, 0.00, 0.00
120, -174228.58, -179904.47, -173166.69, -179954.80, -180052.30, -179960.06, -180200.06, -180026.44, 0.00, 0.00, 0.00
121, -174442.89, -179963.20, -173326.27, -180018.75, -180111.16, -180018.80, -180258.98, -180085.36, 0.00, 0.00, 0.00
122, -174545.66, -179995.33, -173435.67, -180051.92, -180143.30, -180050.83, -180291.09, -180117.30, 0.00, 0.00, 0.00
123, -174350.34, -179946.20, -173298.25, -179999.67, -180094.13, -180001.77, -180241.91, -180068.16, 0.00, 0.00, 0.00
124, -174222.64, -179911.64, -173187.88, -179961.58, -180059.52, -179967.17, -180207.27, -180033.66, 0.00, 0.00, 0.00
125, -174406.50, -179960.13, -173288.89, -180014.89, -180108.03, -180015.63, -180255.91, -180082.20, 0.00, 0.00, 0.00
126, -174561.31, -180005.13, -173458.22, -180061.78, -180152.97, -180060.58, -180300.88, -180127.06, 0.00, 0.00, 0.00
127, -174401.42, -179966.52, -173323.41, -180020.88, -180114.34, -180022.00, -180262.19, -180088.42, 0.00, 0.00, 0.00
128, -174224.75, -179915.38, -173193.14, -179964.55, -180063.25, -179970.92, -180210.98, -180037.34, 0.04, 0.10, 1.04
129, -174364.77, -179952.56, -173238.69, -180005.92, -180100.45, -180008.06, -180248.22, -180074.56, 0.00, 0.00, 0.00
130, -174560.77, -180010.48, -173452.30, -180067.22, -180158.47, -180065.98, -180306.20, -180132.45, 0.00, 0.00, 0.00
131, -174448.63, -179982.23, -173352.34, -180037.50, -180130.22, -180037.78, -180278.02, -180104.34, 0.00, 0.00, 0.00
132, -174241.39, -179925.14, -173239.30, -179975.91, -180073.16, -179980.80, -180220.86, -180047.30, 0.00, 0.00, 0.00
133, -174331.00, -179949.42, -173218.28, -180002.33, -180097.36, -180005.00, -180245.16, -180071.50, 0.00, 0.00, 0.00
134, -174553.97, -180014.16, -173451.41, -180070.72, -180162.03, -180069.72, -180309.92, -180136.14, 0.00, 0.00, 0.00
135, -174494.75, -180002.55, -173395.02, -180058.30, -180150.38, -180058.03, -180298.23, -180124.48, 0.00, 0.00, 0.00
136, -174265.91, -179940.39, -173272.91, -179991.42, -180088.20, -179995.95, -180235.94, -180062.39, 0.00, 0.00, 0.00
137, -174297.44, -179947.05, -173202.05, -179998.75, -180094.89, -180002.66, -180242.67, -180069.09, 0.00, 0.00, 0.00
138, -174532.41, -180014.78, -173433.53, -180071.17, -180162.63, -180070.20, -180310.38, -180136.70, 0.04, 0.10, 1.03
139, -174531.89, -180021.50, -173431.03, -180077.77, -180169.41, -180076.89, -180317.00, -180143.41, 0.00, 0.00, 0.00
140, -174303.20, -179958.52, -173302.33, -180010.75, -180106.42, -180014.06, -180254.05, -180080.48, 0.00, 0.00, 0.00
141, -174275.45, -179948.05, -173205.61, -179999.38, -180095.95, -180003.64, -180243.61, -180070.03, 0.00, 0.00, 0.00
142, -174504.95, -180011.47, -173405.09, -180067.69, -180159.39, -180066.97, -180306.98, -180133.42, 0.00, 0.00, 0.00
143, -174563.63, -180033.81, -173465.36, -180090.28, -180181.73, -180089.25, -180329.33, -180155.75, 0.00, 0.00, 0.00
144, -174346.55, -179978.81, -173325.84, -180032.08, -180126.69, -180034.28, -180274.34, -180100.67, 0.00, 0.00, 0.00
145, -174258.00, -179952.19, -173217.44, -180002.70, -180100.11, -180007.72, -180247.70, -180074.08, 0.00, 0.00, 0.00
146, -174465.91, -180008.45, -173364.27, -180063.91, -180156.42, -180064.00, -180304.08, -180130.41, 0.00, 0.00, 0.00
147, -174583.02, -180046.05, -173490.45, -180102.69, -180194.08, -180101.44, -180341.53, -180167.89, 0.00, 0.00, 0.00
148, -174396.78, -179998.23, -173350.06, -180052.17, -180146.22, -180053.67, -180293.66, -180120.13, 0.04, 0.10, 1.03
149, -174254.95, -179956.73, -173244.88, -180007.56, -180104.70, -180012.25, -180252.19, -180078.64, 0.00, 0.00, 0.00
150, -174427.95, -180000.88, -173329.06, -180055.86, -180148.84, -180056.44, -180296.47, -180122.80, 0.00, 0.00, 0.00
151, -174593.50, -180053.11, -173509.28, -180109.86, -180201.08, -180108.58, -180348.75, -180174.92, 0.00, 0.00, 0.00
152, -174443.67, -180014.50, -173375.02, -180068.95, -180162.44, -180069.92, -180310.02, -180136.30, 0.00, 0.00, 0.00
153, -174258.80, -179961.64, -173249.28, -180011.20, -180109.55, -180017.17, -180257.11, -180083.42, 0.00, 0.00, 0.00
154, -174388.02, -179996.05, -173279.36, -180049.42, -180143.91, -180051.55, -180291.48, -180117.81, 0.00, 0.00, 0.00
155, -174592.53, -180056.59, -173500.81, -180113.17, -180204.55, -180112.00, -180352.05, -180178.41, 0.00, 0.00, 0.00
156, -174494.28, -180035.78, -173406.69, -180090.97, -180183.73, -180091.23, -180331.28, -180157.56, 0.00, 0.00, 0.00
157, -174279.77, -179973.16, -173273.00, -180023.16, -180121.02, -180028.63, -180268.58, -180094.91, 0.00, 0.00, 0.00
158, -174354.95, -179991.94, -173248.30, -180043.97, -180139.78, -180047.44, -180287.42, -180113.77, 0.04, 0.10, 1.03
159, -174581.69, -180062.31, -173485.98, -180118.78, -180210.20, -180117.72, -180357.83, -180184.09, 0.00, 0.00, 0.00
160, -174535.36, -180053.73, -173440.83, -180109.50, -180201.64, -180109.13, -180349.31, -180175.59, 0.00, 0.00, 0.00
161, -174305.83, -179991.03, -173318.27, -180042.00, -180139.05, -180046.58, -180286.59, -180112.98, 0.00, 0.00, 0.00
162, -174323.00, -179993.78, -173235.89, -180044.45, -180141.80, -180049.36, -180289.30, -180115.67, 0.00, 0.00, 0.00
163, -174557.81, -180061.25, -173463.86, -180117.39, -180209.23, -180116.75, -180356.83, -180183.08, 0.00, 0.00, 0.00
164, -174573.42, -180068.78, -173478.41, -180125.02, -180216.77, -180124.28, -180364.38, -180190.61, 0.00, 0.00, 0.00
165, -174346.39, -180007.38, -173348.70, -180059.41, -180155.23, -180062.94, -180302.89, -180129.23, 0.00, 0.00, 0.00
166, -174302.86, -179993.63, -173244.55, -180043.94, -180141.47, -180049.16, -180289.14, -180115.41, 0.00, 0.00, 0.00
167, -174528.05, -180056.84, -173433.97, -180112.50, -180204.66, -180112.23, -180352.36, -180178.59, 0.00, 0.00, 0.00
168, -174599.81, -180082.44, -173509.80, -180138.83, -180230.25, -180137.83, -180377.92, -180204.14, 0.04, 0.10, 1.03
169, -174390.14, -180026.84, -173372.44, -180079.86, -180174.67, -180082.20, -180322.30, -180148.55, 0.00, 0.00, 0.00
170, -174289.38, -179996.61, -173261.53, -180046.38, -180144.38, -180051.98, -180292.03, -180118.23, 0.00, 0.00, 0.00
171, -174491.22, -180051.63, -173395.64, -180106.58, -180199.47, -180107.05, -180347.14, -180173.36, 0.00, 0.00, 0.00
172, -174621.77, -180090.80, -173537.47, -180147.31, -180238.69, -180146.20, -180386.31, -180212.52, 0.00, 0.00, 0.00
173, -174443.06, -180044.91, -173396.88, -180098.58, -180192.84, -180100.38, -180340.39, -180166.77, 0.00, 0.00, 0.00
174, -174290.56, -180001.52, -173268.42, -180050.25, -180149.36, -180057.00, -180296.92, -180123.22, 0.00, 0.00, 0.00
175, -174454.05, -180048.14, -173348.23, -180101.72, -180195.94, -180103.63, -180343.69, -180169.83, 0.00, 0.00, 0.00
176, -174628.78, -180100.77, -173540.88, -180157.31, -180248.55, -180156.19, -180396.31, -180222.44, 0.00, 0.00, 0.00
177, -174491.25, -180067.66, -173427.56, -180122.33, -180215.45, -180123.14, -180363.23, -180189.36, 0.00, 0.00, 0.00
178, -174296.53, -180011.72, -173332.98, -180062.66, -180159.61, -180067.38, -180307.41, -180133.63, 0.03, 0.11, 1.04
179, -174412.02, -180040.84, -173330.69, -180094.59, -180188.83, -180096.50, -180336.58, -180162.83, 0.00, 0.00, 0.00
180, -174625.91, -180104.27, -173555.20, -180160.84, -180252.27, -180159.81, -180400.00, -180226.20, 0.00, 0.00, 0.00
181, -174539.98, -180083.55, -173472.58, -180138.89, -180231.41, -180139.03, -180379.13, -180205.33, 0.00, 0.00, 0.00
182, -174319.19, -180025.77, -173353.44, -180076.58, -180173.58, -180081.31, -180321.22, -180147.50, 0.00, 0.00, 0.00
183, -174379.45, -180039.55, -173310.33, -180092.17, -180187.39, -180095.08, -180335.08, -180161.30, 0.00, 0.00, 0.00
184, -174609.19, -180105.81, -173541.69, -180162.09, -180253.67, -180161.25, -180401.27, -180227.47, 0.00, 0.00, 0.00
185, -174578.58, -180102.28, -173507.56, -180158.09, -180250.23, -180157.77, -180397.84, -180223.98, 0.00, 0.00, 0.00
186, -174347.98, -180041.13, -173363.92, -180092.11, -180188.98, -180096.67, -180336.48, -180162.78, 0.00, 0.00, 0.00
187, -174350.63, -180040.05, -173283.45, -180090.34, -180187.89, -180095.52, -180335.45, -180161.67, 0.00, 0.00, 0.00
188, -174585.89, -180103.20, -173508.27, -180159.02, -180250.98, -180158.55, -180398.64, -180224.81, 0.03, 0.10, 1.04
189, -174615.69, -180116.20, -173536.17, -180172.17, -180264.06, -180171.53, -180411.63, -180237.80, 0.00, 0.00, 0.00
190, -174391.72, -180057.36, -173398.88, -180109.59, -180205.22, -180112.78, -180352.64, -180178.95, 0.00, 0.00, 0.00
191, -174333.41, -180037.89, -173303.81, -180088.67, -180185.81, -180093.36, -180333.28, -180159.56, 0.00, 0.00, 0.00
192, -174552.20, -180099.63, -173473.72, -180155.25, -180247.56, -180155.05, -180395.20, -180221.30, 0.00, 0.00, 0.00
193, -174639.69, -180129.91, -173566.13, -180186.25, -180277.86, -180185.27, -180425.48, -180251.53, 0.00, 0.00, 0.00
194, -174435.94, -180076.59, -173426.31, -180129.81, -180224.55, -180132.09, -180372.09, -180198.28, 0.00, 0.00, 0.00
195, -174321.42, -180042.77, -173320.05, -180092.88, -180190.66, -180098.28, -180338.20, -180164.42, 0.00, 0.00, 0.00
196, -174515.27, -180095.05, -173436.75, -180149.94, -180242.94, -180150.58, -180390.58, -180216.72, 0.00, 0.00, 0.00
197, -174656.66, -180140.84, -173591.58, -180197.36, -180288.81, -180196.41, -180436.33, -180262.55, 0.00, 0.00, 0.00
198, -174486.97, -180098.95, -173450.17, -180152.95, -180246.89, -180154.55, -180394.42, -180220.64, 0.03, 0.10, 1.04
199, -174323.23, -180049.16, -173325.72, -180098.30, -180197.09, -180104.70, -180344.58, -180170.72, 0.00, 0.00, 0.00
200, -174474.27, -180089.50, -173385.94, -180143.19, -180237.44, -180145.05, -180384.98, -180211.25, 0.00, 0.00, 0.00
201, -174659.39, -180146.09, -173589.66, -180202.53, -180293.97, -180201.48, -180441.47, -180267.70, 0.00, 0.00, 0.00
202, -174533.84, -180116.83, -173477.58, -180171.64, -180264.72, -180172.28, -180412.34, -180238.47, 0.00, 0.00, 0.00
203, -174333.00, -180060.22, -173365.98, -180110.22, -180207.95, -180115.63, -180355.58, -180181.73, 0.00, 0.00, 0.00
204, -174438.17, -180087.64, -173360.22, -180140.09, -180235.44, -180143.05, -180383.02, -180209.19, 0.00, 0.00, 0.00
205, -174656.64, -180150.34, -173590.14, -180206.63, -180298.34, -180205.70, -180445.72, -180271.94, 0.00, 0.00, 0.00
206, -174583.81, -180133.95, -173519.88, -180189.36, -180281.94, -180189.36, -180429.41, -180255.55, 0.00, 0.00, 0.00
207, -174357.77, -180073.63, -173398.25, -180123.97, -180221.42, -180129.06, -180368.94, -180195.16, 0.00, 0.00, 0.00
208, -174402.20, -180083.66, -173336.91, -180134.80, -180231.52, -180139.03, -180379.00, -180205.23, 0.04, 0.10, 1.03
209, -174635.48, -180148.81, -173570.59, -180204.89, -180296.77, -180204.25, -180444.22, -180270.45, 0.00, 0.00, 0.00
210, -174619.84, -180148.97, -173551.72, -180204.81, -180296.92, -180204.41, -180444.42, -180270.56, 0.00, 0.00, 0.00
211, -174389.00, -180087.59, -173423.05, -180139.45, -180235.45, -180143.00, -180382.97, -180209.08, 0.00, 0.00, 0.00
212, -174376.86, -180082.17, -173336.63, -180133.13, -180230.06, -180137.69, -180377.55, -180203.72, 0.00, 0.00, 0.00
213, -174609.94, -180147.03, -173545.80, -180202.91, -180295.00, -180202.53, -180442.44, -180268.72, 0.00, 0.00, 0.00
214, -174654.45, -180165.83, -173589.70, -180221.86, -180313.81, -180221.34, -180461.20, -180287.44, 0.00, 0.00, 0.00
215, -174432.63, -180107.72, -173451.08, -180160.19, -180255.55, -180163.23, -180403.03, -180229.22, 0.00, 0.00, 0.00
216, -174358.08, -180085.08, -173346.95, -180135.19, -180232.92, -180140.59, -180380.31, -180206.59, 0.00, 0.00, 0.00
217, -174573.42, -180145.31, -173506.95, -180200.45, -180293.13, -180200.70, -180440.67, -180266.80, 0.00, 0.00, 0.00
218, -174676.02, -180179.33, -173617.08, -180235.47, -180327.19, -180234.73, -180474.64, -180300.75, 0.03, 0.11, 1.04
219, -174479.70, -180126.94, -173477.41, -180180.06, -180274.77, -180182.30, -180422.17, -180248.34, 0.00, 0.00, 0.00
220, -174352.78, -180091.31, -173370.45, -180140.91, -180239.20, -180146.72, -180386.50, -180212.75, 0.00, 0.00, 0.00
221, -174537.48, -180140.19, -173474.28, -180194.77, -180288.11, -180195.67, -180435.55, -180261.81, 0.00, 0.00, 0.00
222, -174691.38, -180187.05, -173641.31, -180243.34, -180334.89, -180242.50, -180482.42, -180308.52, 0.00, 0.00, 0.00
223, -174530.95, -180146.88, -173512.45, -180200.92, -180294.70, -180202.34, -180442.25, -180268.41, 0.00, 0.00, 0.00
224, -174354.69, -180098.66, -173373.95, -180147.05, -180246.55, -180154.11, -180393.86, -180220.19, 0.00, 0.00, 0.00
225, -174495.61, -180137.11, -173421.69, -180189.78, -180285.00, -180192.58, -180432.39, -180258.67, 0.00, 0.00, 0.00
226, -174690.81, -180194.77, -173636.77, -180250.86, -180342.66, -180250.14, -180490.05, -180316.14, 0.00, 0.00, 0.00
227, -174578.56, -180168.63, -173535.36, -180223.19, -180316.50, -180223.97, -180463.86, -180289.97, 0.00, 0.00, 0.00
228, -174371.55, -180109.14, -173420.73, -180159.19, -180256.94, -180164.48, -180404.41, -180230.53, 0.04, 0.10, 1.03
229, -174461.63, -180130.78, -173400.25, -180183.03, -180278.64, -180186.28, -180426.11, -180252.31, 0.00, 0.00, 0.00
230, -174684.33, -180193.98, -173632.39, -180250.09, -180341.83, -180249.44, -180489.38, -180315.42, 0.00, 0.00, 0.00
231, -174624.09, -180185.31, -173574.77, -180240.69, -180333.16, -180240.80, -180480.70, -180306.80, 0.00, 0.00, 0.00
232, -174395.36, -180124.31, -173451.47, -180174.97, -180272.20, -180179.89, -180419.67, -180245.88, 0.00, 0.00, 0.00
233, -174427.48, -180128.92, -173380.00, -180180.02, -180276.78, -180184.47, -180424.19, -180250.50, 0.00, 0.00, 0.00
234, -174661.70, -180195.44, -173610.73, -180251.55, -180343.50, -180250.97, -180490.86, -180317.03, 0.00, 0.00, 0.00
235, -174660.77, -180202.28, -173607.45, -180258.20, -180350.20, -180257.73, -180497.66, -180323.88, 0.00, 0.00, 0.00
236, -174432.88, -180139.36, -173479.02, -180190.97, -180287.20, -180194.92, -180434.72, -180260.98, 0.00, 0.00, 0.00
237, -174405.56, -180128.83, -173384.13, -180179.16, -180276.67, -180184.33, -180424.08, -180250.31, 0.00, 0.00, 0.00
238, -174635.11, -180193.55, -173583.78, -180249.17, -180341.44, -180248.97, -180488.83, -180315.00, 0.00, 0.00, 0.00
239, -174692.59, -180214.22, -173642.72, -180270.33, -180362.28, -180269.70, -180509.55, -180335.66, 0.04, 0.10, 1.03
240, -174474.41, -180156.42, -173502.89, -180208.86, -180304.41, -180211.88, -180451.80, -180277.91, 0.00, 0.00, 0.00
241, -174386.14, -180132.23, -173397.72, -180182.09, -180280.20, -180187.73, -180427.56, -180253.73, 0.00, 0.00, 0.00
242, -174594.70, -180188.84, -173546.58, -180243.92, -180336.91, -180244.33, -180484.36, -180310.42, 0.00, 0.00, 0.00
243, -174710.70, -180225.78, -173671.70, -180282.02, -180373.75, -180281.19, -180521.27, -180347.22, 0.00, 0.00, 0.00
244, -174524.06, -180175.78, -173525.33, -180228.92, -180323.83, -180231.30, -180471.23, -180297.38, 0.00, 0.00, 0.00
245, -174383.30, -180135.56, -173402.06, -180184.47, -180283.64, -180191.22, -180430.94, -180257.02, 0.00, 0.00, 0.00
246, -174558.16, -180182.97, -173498.44, -180236.92, -180331.00, -180238.50, -180478.34, -180304.50, 0.00, 0.00, 0.00
247, -174723.52, -180233.59, -173680.42, -180289.97, -180381.72, -180289.14, -180529.02, -180355.14, 0.00, 0.00, 0.00
248, -174573.13, -180196.66, -173554.86, -180250.94, -180344.64, -180252.23, -180492.09, -180318.28, 0.00, 0.00, 0.00
249, -174387.80, -180144.73, -173442.41, -180194.19, -180292.72, -180200.27, -180440.16, -180266.34, 0.03, 0.10, 1.03
250, -174516.98, -180179.73, -173463.59, -180232.53, -180327.59, -180235.23, -180475.02, -180301.28, 0.00, 0.00, 0.00
251, -174721.91, -180238.69, -173683.22, -180295.05, -180386.64, -180294.08, -180534.03, -180360.22, 0.00, 0.00, 0.00
252, -174623.58, -180216.20, -173593.45, -180271.16, -180364.13, -180271.59, -180511.55, -180337.67, 0.00, 0.00, 0.00
253, -174408.44, -180156.78, -173475.73, -180206.95, -180304.66, -180212.23, -180452.09, -180278.19, 0.00, 0.00, 0.00
254, -174484.22, -180174.36, -173442.17, -180226.67, -180322.30, -180229.86, -180469.70, -180295.84, 0.00, 0.00, 0.00
255, -174711.27, -180238.94, -173676.77, -180295.05, -180386.91, -180294.44, -180534.25, -180360.52, 0.00, 0.00, 0.00
0, -174664.59, -180231.70, -173627.72, -180287.13, -180379.67, -180287.17, -180527.08, -180353.30, 0.00, 0.00, 0.00
1, -174435.38, -180171.23, -173503.16, -180222.42, -180319.16, -180226.84, -180466.59, -180292.83, 0.00, 0.00, 0.00
2, -174453.22, -180175.30, -173428.39, -180226.41, -180323.30, -180230.92, -180470.55, -180296.86, 0.00, 0.00, 0.00
3, -174687.86, -180243.66, -173652.08, -180299.36, -180391.67, -180299.09, -180538.97, -180365.09, 0.03, 0.10, 1.03
4, -174702.45, -180250.05, -173664.20, -180305.97, -180398.11, -180305.58, -180545.41, -180371.52, 0.00, 0.00, 0.00
5, -174475.45, -180187.17, -173529.50, -180239.31, -180335.14, -180242.72, -180482.50, -180308.61, 0.00, 0.00, 0.00
6, -174432.58, -180175.86, -173433.91, -180226.16, -180323.78, -180231.41, -180471.13, -180297.25, 0.00, 0.00, 0.00
7, -174657.69, -180241.13, -173619.45, -180296.52, -180389.17, -180296.61, -180536.52, -180362.56, 0.00, 0.00, 0.00
8, -174728.66, -180264.88, -173694.53, -180320.95, -180412.86, -180320.28, -180560.20, -180386.27, 0.00, 0.00, 0.00
9, -174517.92, -180208.45, -173555.59, -180261.05, -180356.27, -180263.91, -180503.66, -180329.80, 0.00, 0.00, 0.00
10, -174417.11, -180178.08, -173447.11, -180227.86, -180325.91, -180233.55, -180473.25, -180299.45, 0.00, 0.00, 0.00
11, -174618.59, -180233.22, -173581.20, -180288.03, -180381.14, -180288.66, -180528.48, -180354.70, 0.00, 0.00, 0.00
12, -174748.66, -180273.39, -173721.86, -180329.64, -180421.42, -180328.92, -180568.73, -180394.91, 0.00, 0.00, 0.00
13, -174569.64, -180227.88, -173580.94, -180281.31, -180375.78, -180283.39, -180523.20, -180349.31, 0.03, 0.10, 1.04
14, -174417.56, -180185.20, -173453.63, -180233.83, -180333.08, -180240.77, -180480.47, -180306.58, 0.00, 0.00, 0.00
15, -174581.02, -180228.38, -173534.00, -180281.83, -180376.31, -180283.94, -180523.67, -180349.72, 0.00, 0.00, 0.00
16, -174755.78, -180280.20, -173726.31, -180336.38, -180428.17, -180335.72, -180575.48, -180401.64, 0.00, 0.00, 0.00
17, -174617.59, -180245.75, -173610.00, -180300.14, -180393.75, -180301.33, -180541.05, -180367.19, 0.00, 0.00, 0.00
18, -174423.00, -180194.23, -173495.52, -180243.59, -180342.16, -180249.77, -180489.38, -180315.52, 0.00, 0.00, 0.00
19, -174539.48, -180225.66, -173501.44, -180278.13, -180373.56, -180281.13, -180520.86, -180346.98, 0.00, 0.00, 0.00
20, -174753.38, -180286.92, -173729.02, -180343.19, -180434.92, -180342.39, -180582.23, -180408.39, 0.00, 0.00, 0.00
21, -174666.56, -180266.19, -173645.72, -180321.44, -180414.17, -180321.64, -180561.52, -180387.64, 0.00, 0.00, 0.00
22, -174445.56, -180206.95, -173526.47, -180257.41, -180354.91, -180262.45, -180502.20, -180328.28, 0.00, 0.00, 0.00
23, -174505.81, -180221.73, -173479.73, -180273.20, -180369.70, -180277.25, -180516.97, -180343.13, 0.04, 0.10, 1.04
24, -174735.83, -180288.66, -173713.48, -180344.78, -180436.69, -180344.16, -180583.88, -180410.11, 0.00, 0.00, 0.00
25, -174705.34, -180284.83, -173681.92, -180340.42, -180432.78, -180340.27, -180580.00, -180406.22, 0.00, 0.00, 0.00
26, -174474.31, -180220.41, -173555.13, -180271.63, -180368.36, -180275.91, -180515.56, -180341.73, 0.00, 0.00, 0.00
27, -174477.20, -180217.45, -173468.06, -180267.97, -180365.30, -180272.89, -180512.55, -180338.73, 0.00, 0.00, 0.00
28, -174713.23, -180284.61, -173689.39, -180340.23, -180432.53, -180339.92, -180579.89, -180405.91, 0.00, 0.00, 0.00
29, -174743.16, -180300.59, -173718.44, -180356.48, -180448.53, -180355.92, -180595.92, -180421.89, 0.00, 0.00, 0.00
30, -174518.33, -180241.06, -173585.08, -180293.23, -180388.92, -180296.52, -180536.38, -180362.45, 0.00, 0.00, 0.00
31, -174459.61, -180221.70, -173479.95, -180271.81, -180369.61, -180277.09, -180516.86, -180343.05, 0.00, 0.00, 0.00
32, -174677.94, -180283.23, -173655.50, -180338.55, -180431.14, -180338.70, -180578.53, -180404.56, 0.00, 0.00, 0.00
33, -174765.06, -180313.34, -173749.25, -180369.45, -180461.30, -180368.88, -180608.69, -180434.67, 0.03, 0.10, 1.04
34, -174560.84, -180258.91, -173611.20, -180311.77, -180406.83, -180314.44, -180554.19, -180380.30, 0.00, 0.00, 0.00
35, -174445.44, -180224.70, -173497.61, -180274.39, -180372.78, -180280.36, -180519.97, -180346.14, 0.00, 0.00, 0.00
36, -174639.45, -180278.34, -173618.75, -180332.95, -180426.45, -180333.95, -180573.64, -180399.84, 0.00, 0.00, 0.00
37, -174781.50, -180322.45, -173773.61, -180378.66, -180470.48, -180377.95, -180617.75, -180443.86, 0.00, 0.00, 0.00
38, -174611.73, -180278.80, -173639.91, -180332.70, -180426.77, -180334.31, -180574.13, -180400.20, 0.00, 0.00, 0.00
39, -174447.30, -180234.00, -173528.67, -180283.78, -180381.86, -180289.45, -180529.16, -180355.27, 0.00, 0.00, 0.00
40, -174598.52, -180274.09, -173583.44, -180327.78, -180421.91, -180329.48, -180569.17, -180395.31, 0.00, 0.00, 0.00
41, -174784.63, -180329.48, -173783.27, -180385.64, -180477.50, -180384.97, -180624.66, -180450.80, 0.00, 0.00, 0.00
42, -174657.67, -180299.30, -173669.94, -180353.88, -180447.28, -180354.75, -180594.53, -180420.56, 0.00, 0.00, 0.00
43, -174455.92, -180242.72, -173557.11, -180292.94, -180390.66, -180298.16, -180537.84, -180363.91, 0.04, 0.10, 1.04
44, -174561.13, -180268.73, -173549.78, -180321.63, -180416.77, -180324.23, -180563.94, -180390.08, 0.00, 0.00, 0.00
45, -174779.11, -180331.55, -173780.63, -180387.72, -180479.56, -180387.05, -180626.86, -180452.95, 0.00, 0.00, 0.00
46, -174705.39, -180318.78, -173705.03, -180373.83, -180466.66, -180374.28, -180614.09, -180440.11, 0.00, 0.00, 0.00
47, -174480.75, -180257.61, -173565.33, -180307.05, -180405.48, -180313.17, -180552.89, -180378.92, 0.00, 0.00, 0.00
48, -174526.59, -180267.81, -173512.31, -180318.13, -180415.67, -180323.31, -180563.02, -180389.14, 0.00, 0.00, 0.00
49, -174760.17, -180333.56, -173749.38, -180389.39, -180481.52, -180388.98, -180628.83, -180454.95, 0.00, 0.00, 0.00
50, -174744.13, -180335.45, -173733.22, -180390.94, -180483.41, -180390.81, -180630.61, -180456.67, 0.00, 0.00, 0.00
51, -174512.36, -180273.11, -173606.59, -180324.34, -180420.97, -180328.55, -180568.19, -180394.31, 0.00, 0.00, 0.00
52, -174501.00, -180266.86, -173509.75, -180316.59, -180414.84, -180322.30, -180561.98, -180388.05, 0.00, 0.00, 0.00
53, -174734.52, -180332.06, -173723.78, -180387.56, -180480.20, -180387.47, -180627.39, -180453.50, 0.04, 0.09, 1.03
54, -174777.61, -180349.67, -173767.75, -180405.64, -180497.80, -180405.14, -180644.95, -180471.05, 0.00, 0.00, 0.00
55, -174554.63, -180291.28, -173642.47, -180343.75, -180439.30, -180346.81, -180586.53, -180412.59, 0.00, 0.00, 0.00
56, -174479.08, -180269.52, -173544.95, -180319.81, -180417.53, -180325.13, -180564.81, -180390.91, 0.00, 0.00, 0.00
57, -174693.72, -180326.52, -173696.45, -180381.61, -180474.53, -180381.97, -180621.84, -180447.81, 0.00, 0.00, 0.00
58, -174796.33, -180359.11, -173806.20, -180415.25, -180507.14, -180414.61, -180654.45, -180480.41, 0.00, 0.00, 0.00
59, -174599.69, -180308.44, -173660.23, -180361.45, -180456.56, -180364.00, -180603.83, -180429.75, 0.00, 0.00, 0.00
60, -174473.13, -180271.38, -173533.55, -180320.23, -180419.36, -180326.92, -180566.53, -180392.63, 0.00, 0.00, 0.00
61, -174657.44, -180322.42, -173648.28, -180376.53, -180470.48, -180377.95, -180617.64, -180443.75, 0.00, 0.00, 0.00
62, -174812.45, -180370.33, -173818.02, -180426.47, -180518.42, -180425.80, -180665.55, -180491.61, 0.00, 0.00, 0.00
63, -174652.25, -180330.31, -173686.66, -180384.20, -180478.33, -180385.83, -180625.52, -180451.64, 0.04, 0.10, 1.03
64, -174475.44, -180281.66, -173576.22, -180331.09, -180429.53, -180337.31, -180576.70, -180402.91, 0.00, 0.00, 0.00
65, -174616.09, -180318.67, -173610.80, -180371.69, -180466.75, -180374.25, -180613.91, -180439.95, 0.00, 0.00, 0.00
66, -174812.41, -180376.09, -173822.06, -180432.19, -180524.17, -180431.61, -180671.41, -180497.34, 0.00, 0.00, 0.00
67, -174699.84, -180350.20, -173720.30, -180404.77, -180498.28, -180405.73, -180645.47, -180471.52, 0.00, 0.00, 0.00
68, -174491.64, -180292.30, -173606.27, -180342.19, -180440.34, -180347.88, -180587.52, -180413.59, 0.00, 0.00, 0.00
69, -174581.16, -180317.11, -173585.81, -180369.05, -180465.14, -180372.67, -180612.34, -180438.42, 0.00, 0.00, 0.00
70, -174804.52, -180379.33, -173817.98, -180435.13, -180527.34, -180434.72, -180674.44, -180500.55, 0.00, 0.00, 0.00
71, -174744.84, -180367.84, -173759.77, -180422.98, -180515.86, -180423.36, -180663.05, -180489.08, 0.00, 0.00, 0.00
72, -174515.06, -180305.91, -173634.95, -180356.11, -180453.81, -180361.45, -180601.02, -180426.98, 0.00, 0.00, 0.00
73, -174546.58, -180313.44, -173564.33, -180364.05, -180461.39, -180368.89, -180608.61, -180434.55, 0.04, 0.10, 1.04
74, -174781.22, -180379.44, -173795.58, -180435.20, -180527.52, -180434.98, -180674.83, -180500.67, 0.00, 0.00, 0.00
75, -174781.03, -180384.38, -173792.83, -180440.08, -180532.50, -180439.91, -180679.69, -180505.58, 0.00, 0.00, 0.00
76, -174552.45, -180322.89, -173664.06, -180374.69, -180471.05, -180378.61, -180618.20, -180444.20, 0.00, 0.00, 0.00
77, -174524.52, -180313.14, -173568.86, -180363.48, -180461.25, -180368.83, -180608.39, -180434.39, 0.00, 0.00, 0.00
78, -174754.00, -180375.42, -173767.53, -180430.86, -180523.39, -180430.89, -180670.63, -180496.56, 0.00, 0.00, 0.00
79, -174812.14, -180397.66, -173827.00, -180453.53, -180545.69, -180453.14, -180692.92, -180518.84, 0.00, 0.00, 0.00
80, -174593.94, -180340.94, -173686.06, -180393.38, -180488.97, -180396.47, -180636.16, -180462.22, 0.00, 0.00, 0.00
81, -174505.45, -180315.41, -173580.02, -180364.88, -180463.42, -180370.86, -180610.53, -180436.63, 0.00, 0.00, 0.00
82, -174714.39, -180371.39, -173727.63, -180425.98, -180519.36, -180426.73, -180666.53, -180492.55, 0.00, 0.00, 0.00
83, -174830.80, -180406.75, -173852.69, -180462.69, -180554.77, -180462.14, -180701.86, -180527.92, 0.04, 0.10, 1.03
84, -174642.91, -180357.98, -173712.44, -180411.41, -180506.06, -180413.47, -180653.08, -180479.25, 0.00, 0.00, 0.00
85, -174501.09, -180319.25, -173605.03, -180368.94, -180467.33, -180374.73, -180614.36, -180440.39, 0.00, 0.00, 0.00
86, -174675.22, -180365.83, -173687.84, -180419.75, -180514.00, -180421.23, -180661.03, -180487.06, 0.00, 0.00, 0.00
87, -174841.03, -180413.34, -173868.78, -180469.44, -180561.50, -180468.81, -180708.58, -180534.50, 0.00, 0.00, 0.00
88, -174689.67, -180377.70, -173742.58, -180431.83, -180525.89, -180433.31, -180672.92, -180498.89, 0.00, 0.00, 0.00
89, -174503.39, -180328.25, -173628.70, -180377.63, -180476.34, -180383.78, -180623.34, -180449.41, 0.00, 0.00, 0.00
90, -174632.08, -180363.50, -173648.14, -180415.94, -180511.47, -180418.89, -180658.55, -180484.61, 0.00, 0.00, 0.00
91, -174836.81, -180421.86, -173868.27, -180477.86, -180569.97, -180477.36, -180716.95, -180543.11, 0.00, 0.00, 0.00
92, -174737.27, -180398.75, -173778.53, -180453.45, -180546.86, -180454.25, -180693.89, -180520.02, 0.00, 0.00, 0.00
93, -174521.47, -180338.81, -173658.61, -180388.73, -180486.73, -180394.31, -180633.88, -180459.94, 0.04, 0.10, 1.03
94, -174596.41, -180356.89, -173622.00, -180408.72, -180504.84, -180412.39, -180652.02, -180477.97, 0.00, 0.00, 0.00
95, -174824.19, -180421.64, -173857.66, -180477.48, -180569.70, -180477.17, -180716.80, -180542.77, 0.00, 0.00, 0.00
96, -174778.61, -180413.31, -173810.27, -180468.45, -180561.30, -180468.66, -180708.34, -180534.30, 0.00, 0.00, 0.00
97, -174548.50, -180350.78, -173683.42, -180401.45, -180498.72, -180406.20, -180645.88, -180471.84, 0.00, 0.00, 0.00
98, -174565.05, -180354.88, -173609.30, -180405.48, -180502.89, -180410.38, -180650.02, -180476.03, 0.00, 0.00, 0.00
99, -174799.52, -180422.88, -173831.44, -180478.39, -180570.89, -180478.28, -180718.05, -180544.00, 0.00, 0.00, 0.00
100, -174816.39, -180432.19, -173844.78, -180487.73, -180580.23, -180487.58, -180727.30, -180553.27, 0.00, 0.00, 0.00
101, -174589.48, -180369.61, -173712.70, -180421.17, -180517.63, -180425.06, -180664.66, -180490.69, 0.00, 0.00, 0.00
102, -174545.27, -180354.16, -173614.31, -180404.09, -180502.17, -180409.58, -180649.19, -180475.22, 0.00, 0.00, 0.00
103, -174769.11, -180415.55, -173799.72, -180470.64, -180563.53, -180470.92, -180710.66, -180536.69, 0.04, 0.11, 1.03
104, -174841.63, -180443.45, -173875.08, -180499.20, -180591.53, -180498.83, -180738.64, -180564.61, 0.00, 0.00, 0.00
105, -174632.31, -180390.42, -173738.20, -180443.02, -180538.55, -180445.88, -180685.58, -180511.52, 0.00, 0.00, 0.00
106, -174530.81, -180359.14, -173624.81, -180408.55, -180507.05, -180414.58, -180654.17, -180480.30, 0.00, 0.00, 0.00
107, -174731.52, -180412.92, -173758.14, -180467.38, -180560.88, -180468.36, -180708.11, -180534.11, 0.00, 0.00, 0.00
108, -174862.19, -180453.52, -173899.41, -180509.48, -180601.59, -180508.92, -180748.73, -180574.64, 0.00, 0.00, 0.00
109, -174683.14, -180408.34, -173770.38, -180461.67, -180556.45, -180463.86, -180703.47, -180529.42, 0.00, 0.00, 0.00
110, -174530.06, -180365.77, -173650.73, -180414.73, -180513.83, -180421.31, -180660.84, -180486.84, 0.00, 0.00, 0.00
111, -174693.56, -180408.20, -173719.89, -180461.73, -180556.25, -180463.67, -180703.28, -180529.30, 0.00, 0.00, 0.00
112, -174868.23, -180461.52, -173911.97, -180517.48, -180609.55, -180516.92, -180756.61, -180582.58, 0.00, 0.00, 0.00
113, -174730.83, -180428.81, -173795.63, -180482.86, -180576.88, -180484.20, -180723.95, -180549.89, 0.03, 0.11, 1.03
114, -174537.23, -180376.45, -173679.91, -180425.59, -180524.48, -180431.88, -180671.41, -180497.44, 0.00, 0.00, 0.00
115, -174653.59, -180407.27, -173686.77, -180459.39, -180555.23, -180462.69, -180702.14, -180528.27, 0.00, 0.00, 0.00
116, -174866.05, -180467.27, -173913.48, -180523.05, -180615.14, -180522.72, -180762.28, -180588.30, 0.00, 0.00, 0.00
117, -174780.05, -180448.59, -173829.98, -180503.39, -180596.48, -180504.02, -180743.58, -180569.64, 0.00, 0.00, 0.00
118, -174559.27, -180388.61, -173711.38, -180438.91, -180536.58, -180444.08, -180683.50, -180509.64, 0.00, 0.00, 0.00
119, -174619.28, -180402.31, -173665.38, -180453.83, -180550.36, -180457.83, -180697.28, -180523.34, 0.00, 0.00, 0.00
120, -174849.05, -180466.02, -173897.95, -180521.67, -180614.06, -180521.38, -180760.97, -180586.94, 0.00, 0.00, 0.00
121, -174818.48, -180462.81, -173866.19, -180518.19, -180611.00, -180518.30, -180757.81, -180583.92, 0.00, 0.00, 0.00
122, -174587.84, -180400.23, -173736.84, -180450.81, -180548.31, -180455.64, -180695.09, -180521.27, 0.00, 0.00, 0.00
123, -174589.31, -180399.25, -173653.53, -180449.45, -180547.27, -180454.70, -180694.16, -180520.27, 0.00, 0.00, 0.00
124, -174825.11, -180465.16, -173871.63, -180520.59, -180613.11, -180520.58, -180760.19, -180586.17, 0.05, 0.11, 1.03
125, -174855.13, -180478.84, -173900.98, -180534.50, -180626.88, -180534.30, -180773.89, -180599.94, 0.00, 0.00, 0.00
126, -174630.84, -180417.31, -173755.06, -180468.41, -180565.28, -180472.72, -180712.23, -180538.31, 0.00, 0.00, 0.00
127, -174572.22, -180399.83, -173638.88, -180448.17, -180547.80, -180455.23, -180694.72, -180520.73, 0.00, 0.00, 0.00
128, -174791.16, -180461.47, -173824.14, -180516.22, -180609.59, -180516.91, -180756.61, -180582.55, 0.00, 0.00, 0.00
129, -174878.81, -180490.70, -173916.59, -180546.56, -180638.86, -180546.14, -180785.81, -180611.80, 0.00, 0.00, 0.00
130, -174674.66, -180437.00, -173789.48, -180489.92, -180585.08, -180492.45, -180732.02, -180558.06, 0.00, 0.00, 0.00
131, -174558.42, -180402.48, -173689.31, -180452.36, -180550.55, -180457.97, -180697.39, -180523.44, 0.00, 0.00, 0.00
132, -174752.33, -180456.94, -173797.23, -180511.20, -180604.92, -180512.45, -180751.98, -180577.81, 0.00, 0.00, 0.00
133, -174894.38, -180500.33, -173951.86, -180556.20, -180648.31, -180555.83, -180795.30, -180621.28, 0.00, 0.00, 0.00
134, -174724.08, -180457.52, -173820.45, -180511.05, -180605.47, -180512.97, -180752.45, -180578.48, 0.04, 0.10, 1.03
135, -174559.58, -180412.53, -173706.39, -180461.88, -180560.48, -180468.02, -180707.45, -180533.48, 0.00, 0.00, 0.00
136, -174710.58, -180453.47, -173757.11, -180506.88, -180601.47, -180508.84, -180748.53, -180574.44, 0.00, 0.00, 0.00
137, -174896.89, -180508.91, -173960.47, -180564.78, -180656.88, -180564.19, -180803.91, -180629.81, 0.00, 0.00, 0.00
138, -174771.22, -180477.44, -173847.59, -180531.75, -180625.38, -180532.78, -180772.44, -180598.38, 0.00, 0.00, 0.00
139, -174568.70, -180421.52, -173734.38, -180471.55, -180569.48, -180476.89, -180716.39, -180542.45, 0.00, 0.00, 0.00
140, -174674.14, -180444.73, -173727.94, -180497.42, -180592.75, -180500.13, -180739.64, -180565.77, 0.00, 0.00, 0.00
141, -174893.63, -180508.08, -173958.97, -180563.98, -180656.09, -180563.47, -180803.05, -180629.05, 0.00, 0.00, 0.00
142, -174820.19, -180493.22, -173883.28, -180548.20, -180641.34, -180548.69, -180788.28, -180614.25, 0.00, 0.00, 0.00
143, -174594.77, -180432.34, -173743.86, -180481.92, -180580.44, -180487.89, -180727.42, -180553.30, 0.00, 0.00, 0.00
144, -174640.30, -180443.14, -173691.41, -180493.55, -180591.19, -180498.67, -180738.13, -180564.11, 0.04, 0.10, 1.04
145, -174875.50, -180510.25, -173929.72, -180565.75, -180658.28, -180565.59, -180805.16, -180631.17, 0.00, 0.00, 0.00
146, -174860.58, -180513.22, -173912.56, -180568.58, -180661.34, -180568.66, -180808.16, -180634.16, 0.00, 0.00, 0.00
147, -174628.09, -180448.94, -173784.52, -180499.83, -180596.91, -180504.39, -180743.80, -180569.77, 0.00, 0.00, 0.00
148, -174616.58, -180441.89, -173689.30, -180491.61, -180589.84, -180497.33, -180736.84, -180562.80, 0.00, 0.00, 0.00
149, -174851.91, -180507.92, -173903.52, -180563.06, -180655.89, -180563.28, -180802.97, -180628.91, 0.00, 0.00, 0.00
150, -174897.00, -180523.97, -173948.13, -180579.52, -180671.88, -180579.31, -180818.83, -180644.80, 0.00, 0.00, 0.00
151, -174672.75, -180465.39, -173819.19, -180517.67, -180613.28, -180520.81, -180760.31, -180586.23, 0.00, 0.00, 0.00
152, -174596.22, -180441.98, -173719.97, -180492.13, -180589.92, -180497.42, -180736.80, -180562.77, 0.00, 0.00, 0.00
153, -174814.16, -180502.38, -173874.23, -180557.14, -180650.41, -180557.77, -180797.31, -180623.23, 0.00, 0.00, 0.00
154, -174918.06, -180535.81, -173984.72, -180591.47, -180683.92, -180591.20, -180830.72, -180656.66, 0.04, 0.10, 1.03
155, -174719.20, -180484.61, -173842.75, -180537.38, -180632.67, -180540.16, -180779.52, -180605.53, 0.00, 0.00, 0.00
156, -174590.66, -180448.33, -173732.53, -180497.91, -180596.41, -180503.88, -180743.22, -180569.17, 0.00, 0.00, 0.00
157, -174778.47, -180497.84, -173838.67, -180552.16, -180645.97, -180553.36, -180792.86, -180618.81, 0.00, 0.00, 0.00
158, -174935.45, -180547.23, -174010.27, -180603.14, -180695.31, -180602.67, -180842.14, -180668.11, 0.00, 0.00, 0.00
159, -174773.36, -180507.03, -173874.27, -180560.67, -180655.05, -180562.53, -180802.03, -180628.00, 0.00, 0.00, 0.00
160, -174593.77, -180457.34, -173760.91, -180507.00, -180605.39, -180513.05, -180752.42, -180578.38, 0.00, 0.00, 0.00
161, -174737.23, -180495.67, -173801.44, -180548.98, -180643.73, -180551.13, -180790.64, -180616.64, 0.00, 0.00, 0.00
162, -174937.28, -180555.39, -174017.52, -180611.23, -180703.45, -180610.77, -180850.34, -180676.20, 0.00, 0.00, 0.00
163, -174821.23, -180527.92, -173906.20, -180582.28, -180676.00, -180583.31, -180822.92, -180648.73, 0.00, 0.00, 0.00
164, -174609.77, -180468.42, -173770.03, -180517.38, -180616.39, -180523.77, -180763.22, -180589.27, 0.04, 0.10, 1.03
165, -174702.75, -180492.20, -173760.69, -180543.77, -180640.33, -180547.69, -180787.16, -180613.25, 0.00, 0.00, 0.00
166, -174932.84, -180555.83, -174003.92, -180611.55, -180703.98, -180611.36, -180850.78, -180676.83, 0.00, 0.00, 0.00
167, -174870.92, -180544.89, -173946.66, -180599.86, -180693.00, -180600.33, -180839.83, -180665.92, 0.00, 0.00, 0.00
168, -174634.27, -180482.59, -173830.50, -180533.31, -180630.63, -180538.03, -180777.45, -180603.55, 0.00, 0.00, 0.00
169, -174667.86, -180490.52, -173758.41, -180541.88, -180638.61, -180545.92, -180785.34, -180611.41, 0.00, 0.00, 0.00
170, -174910.42, -180558.86, -173992.83, -180614.50, -180707.09, -180614.36, -180853.91, -180679.84, 0.00, 0.00, 0.00
171, -174908.56, -180562.75, -173987.25, -180618.25, -180710.98, -180618.25, -180857.70, -180683.77, 0.00, 0.00, 0.00
172, -174671.77, -180498.64, -173833.00, -180549.77, -180646.84, -180554.23, -180793.59, -180619.75, 0.00, 0.00, 0.00
173, -174644.67, -180488.92, -173736.50, -180538.56, -180636.98, -180544.42, -180783.77, -180609.84, 0.00, 0.00, 0.00
174, -174884.31, -180555.50, -173954.33, -180610.66, -180703.61, -180610.98, -180850.34, -180676.44, 0.04, 0.11, 1.03
175, -174944.92, -180576.67, -174016.89, -180632.39, -180724.75, -180632.20, -180871.58, -180697.67, 0.00, 0.00, 0.00
176, -174717.09, -180516.44, -173871.84, -180568.53, -180664.47, -180571.91, -180811.28, -180637.38, 0.00, 0.00, 0.00
177, -174626.00, -180490.70, -173749.89, -180539.34, -180638.77, -180546.13, -180785.39, -180611.44, 0.00, 0.00, 0.00
178, -174845.59, -180549.98, -173913.86, -180604.34, -180698.06, -180605.38, -180844.78, -180670.75, 0.00, 0.00, 0.00
179, -174967.34, -180588.59, -174045.55, -180644.31, -180736.64, -180643.91, -180883.39, -180709.27, 0.00, 0.00, 0.00
180, -174769.48, -180540.58, -173905.89, -180593.94, -180688.56, -180595.98, -180835.42, -180661.39, 0.00, 0.00, 0.00
181, -174621.19, -180500.36, -173800.77, -180550.55, -180648.42, -180555.83, -180795.13, -180621.17, 0.00, 0.00, 0.00
182, -174806.38, -180546.59, -173887.11, -180600.59, -180694.58, -180601.94, -180841.36, -180667.33, 0.00, 0.00, 0.00
183, -174981.00, -180596.25, -174077.33, -180652.25, -180744.30, -180651.63, -180891.03, -180717.05, 0.00, 0.00, 0.00
184, -174819.58, -180557.77, -173936.13, -180611.55, -180705.73, -180613.06, -180852.61, -180678.55, 0.03, 0.10, 1.04
185, -174622.75, -180504.70, -173790.16, -180552.95, -180652.69, -180560.11, -180799.41, -180625.42, 0.00, 0.00, 0.00
186, -174761.63, -180540.52, -173832.02, -180592.86, -180688.64, -180595.97, -180835.38, -180661.33, 0.00, 0.00, 0.00
187, -174980.88, -180602.69, -174071.53, -180658.53, -180750.77, -180658.06, -180897.52, -180723.41, 0.00, 0.00, 0.00
188, -174873.27, -180580.20, -173972.70, -180634.81, -180728.22, -180635.55, -180874.94, -180700.91, 0.00, 0.00, 0.00
189, -174641.59, -180520.34, -173854.83, -180570.95, -180668.41, -180575.92, -180815.19, -180641.11, 0.00, 0.00, 0.00
190, -174724.78, -180537.73, -173821.67, -180589.95, -180685.78, -180593.17, -180832.63, -180658.58, 0.00, 0.00, 0.00
191, -174971.08, -180604.92, -174074.48, -180660.58, -180753.00, -180660.31, -180899.84, -180725.58, 0.00, 0.00, 0.00
192, -174918.47, -180597.33, -174017.28, -180652.38, -180745.36, -180652.77, -180892.14, -180717.92, 0.00, 0.00, 0.00
193, -174667.52, -180533.52, -173869.19, -180584.34, -180681.50, -180588.98, -180828.27, -180654.23, 0.00, 0.00, 0.00
194, -174687.69, -180537.53, -173803.94, -180588.28, -180685.61, -180592.95, -180832.30, -180658.27, 0.03, 0.10, 1.03
195, -174945.98, -180605.84, -174051.84, -180661.41, -180754.17, -180661.39, -180900.80, -180726.77, 0.00, 0.00, 0.00
196, -174961.63, -180613.72, -174063.11, -180669.14, -180762.00, -180669.13, -180908.63, -180734.59, 0.00, 0.00, 0.00
197, -174711.13, -180549.50, -173887.02, -180600.69, -180697.47, -180604.81, -180844.25, -180670.16, 0.00, 0.00, 0.00
198, -174665.67, -180535.30, -173787.11, -180584.50, -180683.41, -180590.78, -180829.98, -180656.00, 0.00, 0.00, 0.00
199, -174915.06, -180600.75, -174009.63, -180655.67, -180748.97, -180656.20, -180895.61, -180721.58, 0.00, 0.00, 0.00
200, -174993.34, -180626.20, -174091.56, -180681.81, -180774.28, -180681.48, -180921.05, -180746.92, 0.00, 0.00, 0.00
201, -174758.00, -180568.58, -173933.27, -180621.47, -180716.58, -180623.88, -180863.41, -180689.31, 0.00, 0.00, 0.00
202, -174646.27, -180537.77, -173827.98, -180588.03, -180685.73, -180593.23, -180832.63, -180658.45, 0.00, 0.00, 0.00
203, -174871.70, -180596.30, -173978.69, -180650.84, -180744.33, -180651.73, -180891.16, -180717.02, 0.00, 0.00, 0.00
204, -175015.03, -180637.34, -174134.81, -180693.02, -180785.42, -180692.69, -180932.16, -180758.03, 0.04, 0.09, 1.03
205, -174812.45, -180588.03, -173963.27, -180641.70, -180736.05, -180643.50, -180882.95, -180708.89, 0.00, 0.00, 0.00
206, -174642.83, -180543.02, -173843.13, -180593.34, -180691.03, -180598.52, -180837.92, -180663.91, 0.00, 0.00, 0.00
207, -174827.97, -180588.77, -173936.02, -180642.92, -180736.89, -180644.20, -180883.77, -180709.63, 0.00, 0.00, 0.00
208, -175023.36, -180646.28, -174151.08, -180701.98, -180794.45, -180701.63, -180941.05, -180766.86, 0.00, 0.00, 0.00
209, -174864.91, -180608.64, -174004.72, -180662.80, -180756.86, -180664.14, -180903.53, -180729.31, 0.00, 0.00, 0.00
210, -174646.59, -180550.45, -173866.25, -180600.55, -180698.63, -180606.06, -180845.23, -180671.06, 0.00, 0.00, 0.00
211, -174781.14, -180583.72, -173894.55, -180636.78, -180731.86, -180639.22, -180878.48, -180704.38, 0.00, 0.00, 0.00
212, -175022.58, -180648.47, -174153.88, -180704.14, -180796.58, -180703.83, -180943.28, -180769.09, 0.00, 0.00, 0.00
213, -174921.14, -180627.69, -174049.14, -180682.59, -180775.92, -180683.14, -180922.59, -180748.47, 0.00, 0.00, 0.00
214, -174669.27, -180563.48, -173896.09, -180614.38, -180711.64, -180618.94, -180858.34, -180684.33, 0.04, 0.10, 1.04
215, -174740.48, -180578.27, -173867.67, -180630.67, -180726.41, -180633.77, -180873.19, -180699.16, 0.00, 0.00, 0.00
216, -175004.03, -180649.88, -174138.02, -180705.58, -180798.00, -180705.33, -180944.78, -180770.67, 0.00, 0.00, 0.00
217, -174966.52, -180646.77, -174094.69, -180701.91, -180794.83, -180702.11, -180941.55, -180767.47, 0.00, 0.00, 0.00
218, -174700.09, -180577.55, -173924.64, -180628.33, -180725.66, -180632.89, -180872.33, -180698.25, 0.00, 0.00, 0.00
219, -174704.33, -180577.41, -173850.95, -180628.33, -180725.45, -180632.78, -180872.13, -180698.06, 0.00, 0.00, 0.00
220, -174976.20, -180649.23, -174110.25, -180704.55, -180797.33, -180704.53, -180943.89, -180769.86, 0.00, 0.00, 0.00
221, -175008.19, -180662.22, -174139.48, -180717.56, -180810.31, -180717.48, -180956.92, -180782.78, 0.00, 0.00, 0.00
222, -174746.41, -180597.70, -173954.80, -180649.77, -180745.81, -180653.14, -180892.38, -180718.36, 0.00, 0.00, 0.00
223, -174680.31, -180578.13, -173855.45, -180628.70, -180726.30, -180633.58, -180872.86, -180698.84, 0.00, 0.00, 0.00
224, -174935.56, -180641.47, -174069.09, -180696.55, -180789.67, -180696.91, -180936.38, -180762.22, 0.04, 0.10, 1.04
225, -175035.19, -180673.30, -174175.98, -180728.69, -180821.53, -180728.63, -180968.13, -180793.95, 0.00, 0.00, 0.00
226, -174796.47, -180618.55, -173993.59, -180671.31, -180766.73, -180673.88, -180913.38, -180739.31, 0.00, 0.00, 0.00
227, -174664.84, -180581.59, -173866.97, -180631.70, -180729.77, -180637.11, -180876.39, -180702.42, 0.00, 0.00, 0.00
228, -174892.36, -180639.50, -174025.45, -180694.09, -180787.77, -180695.00, -180934.27, -180760.39, 0.00, 0.00, 0.00
229, -175056.22, -180685.55, -174206.73, -180741.30, -180833.81, -180740.84, -180980.17, -180806.19, 0.00, 0.00, 0.00
230, -174855.75, -180638.03, -174027.56, -180691.70, -180786.22, -180693.44, -180932.67, -180758.70, 0.00, 0.00, 0.00
231, -174665.33, -180588.28, -173870.23, -180637.19, -180736.41, -180643.75, -180882.92, -180708.84, 0.00, 0.00, 0.00
232, -174844.48, -180632.48, -173964.92, -180685.84, -180780.61, -180687.97, -180927.39, -180753.14, 0.00, 0.00, 0.00
233, -175060.95, -180691.88, -174205.84, -180747.58, -180840.06, -180747.31, -180986.83, -180812.47, 0.00, 0.00, 0.00
234, -174910.64, -180658.91, -174071.16, -180713.22, -180807.03, -180714.31, -180953.81, -180779.47, 0.04, 0.10, 1.04
235, -174674.25, -180597.89, -173931.09, -180648.11, -180745.88, -180653.25, -180892.59, -180718.45, 0.00, 0.00, 0.00
236, -174799.13, -180627.06, -173939.73, -180680.03, -180775.30, -180682.59, -180921.92, -180747.83, 0.00, 0.00, 0.00
237, -175054.97, -180694.42, -174214.23, -180750.03, -180842.61, -180749.75, -180989.20, -180815.06, 0.00, 0.00, 0.00
238, -174965.73, -180678.38, -174123.45, -180733.16, -180826.52, -180733.66, -180973.06, -180798.94, 0.00, 0.00, 0.00
239, -174700.25, -180613.25, -173951.08, -180663.47, -180761.33, -180668.61, -180907.92, -180733.86, 0.00, 0.00, 0.00
240, -174756.95, -180624.08, -173905.27, -180675.78, -180772.23, -180679.47, -180918.86, -180744.72, 0.00, 0.00, 0.00
241, -175032.97, -180696.30, -174191.20, -180751.83, -180844.47, -180751.69, -180991.09, -180816.91, 0.00, 0.00, 0.00
242, -175010.80, -180695.09, -174164.72, -180750.27, -180843.28, -180750.53, -180989.91, -180815.77, 0.00, 0.00, 0.00
243, -174735.09, -180627.28, -173995.06, -180679.19, -180775.47, -180682.78, -180922.20, -180748.05, 0.00, 0.00, 0.00
244, -174722.73, -180621.56, -173917.05, -180673.77, -180769.70, -180677.08, -180916.48, -180742.38, 0.04, 0.11, 1.03
245, -175002.17, -180694.48, -174172.70, -180750.06, -180842.69, -180749.92, -180989.28, -180815.17, 0.00, 0.00, 0.00
246, -175051.95, -180711.52, -174220.89, -180767.11, -180859.73, -180766.94, -181006.41, -180832.09, 0.00, 0.00, 0.00
247, -174783.69, -180646.25, -174017.28, -180698.88, -180794.47, -180701.69, -180941.13, -180767.02, 0.00, 0.00, 0.00
248, -174696.36, -180621.52, -173909.94, -180672.56, -180769.66, -180677.03, -180916.33, -180742.30, 0.00, 0.00, 0.00
249, -174958.98, -180686.38, -174124.38, -180741.56, -180834.53, -180741.92, -180981.23, -180807.19, 0.00, 0.00, 0.00
250, -175080.89, -180723.84, -174257.92, -180779.55, -180872.08, -180779.20, -181018.66, -180844.45, 0.00, 0.00, 0.00
251, -174837.78, -180666.50, -174056.25, -180719.66, -180814.67, -180721.98, -180961.42, -180787.08, 0.00, 0.00, 0.00
252, -174683.44, -180626.08, -173923.92, -180676.50, -180774.17, -180681.55, -180920.94, -180746.61, 0.00, 0.00, 0.00
253, -174913.48, -180682.84, -174078.08, -180737.47, -180831.00, -180738.38, -180977.64, -180803.45, 0.00, 0.00, 0.00
254, -175103.25, -180736.47, -174288.84, -180792.30, -180884.75, -180791.98, -181031.31, -180857.02, 0.03, 0.11, 1.04
255, -174900.66, -180690.58, -174099.83, -180744.56, -180838.84, -180746.09, -180985.53, -180811.22, 0.00, 0.00, 0.00
0, -174681.36, -180634.14, -173946.95, -180684.44, -180782.33, -180689.64, -180928.95, -180754.84, 0.00, 0.00, 0.00
1, -174861.06, -180677.13, -174030.55, -180730.91, -180825.31, -180732.58, -180972.03, -180797.83, 0.00, 0.00, 0.00
2, -175107.81, -180743.27, -174304.13, -180798.92, -180891.50, -180798.69, -181038.08, -180863.88, 0.00, 0.00, 0.00
3, -174960.53, -180709.69, -174151.70, -180764.27, -180858.00, -180765.19, -181004.52, -180830.34, 0.00, 0.00, 0.00
4, -174695.81, -180644.33, -173973.98, -180695.20, -180792.45, -180699.86, -180939.17, -180765.02, 0.00, 0.00, 0.00
5, -174815.48, -180670.55, -173996.08, -180723.64, -180818.72, -180726.00, -180965.42, -180791.14, 0.00, 0.00, 0.00
6, -175105.08, -180745.55, -174305.17, -180801.17, -180893.88, -180800.95, -181040.31, -180866.06, 0.00, 0.00, 0.00
7, -175023.27, -180729.81, -174213.48, -180784.69, -180878.02, -180785.23, -181024.36, -180850.22, 0.00, 0.00, 0.00
8, -174720.73, -180658.91, -174017.69, -180710.86, -180807.13, -180714.50, -180953.59, -180779.50, 0.00, 0.00, 0.00
9, -174766.16, -180669.70, -173980.50, -180722.28, -180817.92, -180725.31, -180964.55, -180790.33, 0.03, 0.11, 1.04
10, -175082.64, -180747.70, -174293.78, -180803.25, -180895.95, -180803.19, -181042.50, -180868.23, 0.00, 0.00, 0.00
11, -175077.31, -180750.92, -174282.47, -180806.14, -180899.25, -180806.36, -181045.70, -180871.42, 0.00, 0.00, 0.00
12, -174761.17, -180677.39, -174059.89, -180729.92, -180825.58, -180732.89, -180972.14, -180797.98, 0.00, 0.00, 0.00
13, -174726.63, -180664.31, -173974.86, -180716.73, -180812.53, -180719.80, -180959.05, -180784.95, 0.00, 0.00, 0.00
14, -175049.84, -180741.45, -174269.38, -180796.92, -180889.78, -180796.86, -181036.09, -180861.97, 0.00, 0.00, 0.00
15, -175127.91, -180765.23, -174350.98, -180820.53, -180913.50, -180820.55, -181059.83, -180885.67, 0.00, 0.00, 0.00
16, -174813.66, -180695.75, -174101.17, -180748.72, -180843.84, -180751.06, -180990.36, -180816.27, 0.00, 0.00, 0.00
17, -174691.78, -180666.66, -173981.28, -180718.30, -180814.70, -180722.03, -180961.39, -180787.20, 0.00, 0.00, 0.00
18, -174998.64, -180736.52, -174226.50, -180791.44, -180884.61, -180791.88, -181031.17, -180856.97, 0.00, 0.00, 0.00
19, -175165.23, -180779.70, -174408.05, -180835.03, -180927.80, -180835.06, -181074.31, -180900.11, 0.03, 0.10, 1.03
20, -174882.08, -180716.69, -174150.91, -180770.44, -180864.91, -180772.16, -181011.55, -180837.39, 0.00, 0.00, 0.00
21, -174675.77, -180668.83, -173980.36, -180720.00, -180817.05, -180724.42, -180963.73, -180789.58, 0.00, 0.00, 0.00
22, -174943.16, -180728.16, -174167.94, -180782.88, -180876.44, -180783.61, -181022.95, -180848.83, 0.00, 0.00, 0.00
23, -175191.42, -180789.08, -174441.28, -180844.58, -180937.34, -180844.42, -181083.70, -180909.52, 0.00, 0.00, 0.00
24, -174954.83, -180740.72, -174214.55, -180795.03, -180888.95, -180796.23, -181035.56, -180861.28, 0.00, 0.00, 0.00
25, -174672.22, -180676.91, -174020.47, -180728.42, -180825.09, -180732.44, -180971.72, -180797.53, 0.00, 0.00, 0.00
26, -174877.78, -180721.98, -174121.42, -180776.25, -180870.22, -180777.39, -181016.77, -180842.61, 0.00, 0.00, 0.00
27, -175195.67, -180796.02, -174463.66, -180851.41, -180944.14, -180851.36, -181090.56, -180916.47, 0.00, 0.00, 0.00
28, -175031.88, -180763.89, -174291.45, -180818.66, -180912.05, -180819.27, -181058.59, -180884.41, 0.00, 0.00, 0.00
29, -174691.81, -180689.89, -174039.34, -180741.23, -180838.06, -180745.31, -180984.69, -180810.58, 0.03, 0.10, 1.03
30, -174818.48, -180715.23, -174069.64, -180768.61, -180863.41, -180770.67, -181010.02, -180835.94, 0.00, 0.00, 0.00
31, -175185.05, -180797.88, -174455.78, -180853.36, -180946.11, -180853.23, -181092.59, -180918.48, 0.00, 0.00, 0.00
32, -175103.14, -180786.41, -174361.45, -180841.39, -180934.55, -180841.75, -181081.05, -180906.94, 0.00, 0.00, 0.00
33, -174724.61, -180704.75, -174084.36, -180757.19, -180852.89, -180760.09, -180999.39, -180825.31, 0.00, 0.00, 0.00
34, -174758.81, -180710.52, -174047.80, -180763.38, -180858.67, -180765.97, -181005.19, -180831.08, 0.00, 0.00, 0.00
35, -175154.00, -180794.89, -174432.47, -180850.22, -180943.11, -180850.17, -181089.45, -180915.28, 0.00, 0.00, 0.00
36, -175172.52, -180803.97, -174445.70, -180859.22, -180952.28, -180859.22, -181098.50, -180924.42, 0.00, 0.00, 0.00
37, -174779.50, -180724.08, -174135.81, -180776.98, -180872.28, -180779.38, -181018.80, -180844.72, 0.00, 0.00, 0.00
38, -174710.92, -180707.86, -174034.34, -180760.27, -180856.05, -180763.27, -181002.56, -180828.47, 0.00, 0.00, 0.00
39, -175108.59, -180793.59, -174395.28, -180848.89, -180941.80, -180848.98, -181088.06, -180914.03, 0.03, 0.10, 1.03
40, -175230.34, -180823.70, -174523.69, -180878.95, -180971.81, -180878.95, -181118.13, -180943.98, 0.00, 0.00, 0.00
41, -174845.67, -180747.78, -174190.47, -180801.31, -180895.83, -180803.09, -181042.47, -180868.34, 0.00, 0.00, 0.00
42, -174667.86, -180708.30, -174034.09, -180760.25, -180856.36, -180763.63, -181003.06, -180828.98, 0.00, 0.00, 0.00
43, -175042.50, -180783.11, -174336.77, -180838.06, -180931.38, -180838.39, -181077.73, -180903.70, 0.00, 0.00, 0.00
44, -175276.88, -180834.56, -174589.38, -180890.03, -180982.92, -180889.98, -181129.13, -180955.06, 0.00, 0.00, 0.00
45, -174932.72, -180769.39, -174263.58, -180823.66, -180917.73, -180824.94, -181064.23, -180890.11, 0.00, 0.00, 0.00
46, -174648.67, -180710.09, -174053.59, -180762.48, -180858.38, -180765.61, -181004.98, -180830.86, 0.00, 0.00, 0.00
47, -174966.19, -180773.73, -174275.67, -180828.53, -180921.89, -180829.03, -181068.34, -180894.19, 0.00, 0.00, 0.00
48, -175297.55, -180846.27, -174630.31, -180901.72, -180994.55, -180901.58, -181140.75, -180966.52, 0.00, 0.00, 0.00
49, -175020.66, -180794.83, -174353.30, -180849.48, -180943.09, -180850.23, -181089.52, -180915.28, 0.04, 0.10, 1.03
50, -174647.36, -180717.67, -174076.70, -180769.81, -180865.86, -180773.19, -181012.44, -180838.30, 0.00, 0.00, 0.00
51, -174882.33, -180763.25, -174207.64, -180817.66, -180911.44, -180818.61, -181058.00, -180883.75, 0.00, 0.00, 0.00
52, -175297.42, -180850.69, -174643.09, -180906.09, -180998.92, -180905.89, -181145.13, -180970.98, 0.00, 0.00, 0.00
53, -175113.44, -180818.98, -174447.11, -180873.94, -180967.19, -180874.28, -181113.52, -180939.33, 0.00, 0.00, 0.00
54, -174672.70, -180732.80, -174114.63, -180785.53, -180880.95, -180788.25, -181027.58, -180853.41, 0.00, 0.00, 0.00
55, -174804.16, -180754.84, -174156.45, -180808.89, -180903.06, -180810.31, -181049.55, -180875.50, 0.00, 0.00, 0.00
56, -175272.92, -180850.02, -174632.47, -180905.61, -180998.31, -180905.45, -181144.61, -180970.41, 0.00, 0.00, 0.00
57, -175197.28, -180841.52, -174547.27, -180896.75, -180989.75, -180896.86, -181136.19, -180962.05, 0.00, 0.00, 0.00
58, -174712.52, -180747.67, -174160.55, -180800.30, -180895.83, -180803.09, -181042.48, -180868.33, 0.00, 0.00, 0.00
59, -174725.69, -180748.09, -174108.17, -180801.05, -180896.33, -180803.70, -181042.98, -180868.77, 0.03, 0.10, 1.03
60, -175228.14, -180845.95, -174596.33, -180901.42, -180994.31, -180901.47, -181140.59, -180966.44, 0.00, 0.00, 0.00
61, -175280.45, -180860.97, -174646.06, -180916.22, -181009.16, -180916.36, -181155.50, -180981.27, 0.00, 0.00, 0.00
62, -174781.83, -180769.53, -174226.56, -180823.48, -180917.78, -180825.06, -181064.45, -180890.22, 0.00, 0.00, 0.00
63, -174658.89, -180744.41, -174106.72, -180798.00, -180892.70, -180800.03, -181039.42, -180865.23, 0.00, 0.00, 0.00
64, -175153.83, -180836.61, -174541.34, -180892.03, -180984.84, -180891.98, -181131.22, -180956.97, 0.00, 0.00, 0.00
65, -175343.53, -180879.05, -174740.02, -180934.53, -181027.36, -180934.38, -181173.67, -180999.33, 0.00, 0.00, 0.00
66, -174868.53, -180793.28, -174301.73, -180847.48, -180941.59, -180848.89, -181088.17, -180913.88, 0.00, 0.00, 0.00
67, -174610.28, -180743.17, -174084.03, -180795.75, -180891.30, -180798.81, -181038.11, -180863.84, 0.00, 0.00, 0.00
68, -175064.53, -180828.78, -174460.48, -180883.91, -180977.08, -180884.22, -181123.56, -180949.30, 0.00, 0.00, 0.00
69, -175389.08, -180892.59, -174805.80, -180948.00, -181041.03, -180947.94, -181187.13, -181012.89, 0.03, 0.10, 1.03
70, -174977.58, -180818.56, -174405.42, -180873.14, -180966.94, -180874.06, -181113.31, -180939.20, 0.00, 0.00, 0.00
71, -174592.42, -180745.25, -174095.25, -180797.53, -180893.47, -180800.80, -181040.16, -180866.05, 0.00, 0.00, 0.00
72, -174961.94, -180814.14, -174367.31, -180868.91, -180962.38, -180869.59, -181108.94, -180934.70, 0.00, 0.00, 0.00
73, -175403.09, -180900.69, -174835.70, -180956.13, -181049.03, -180956.05, -181195.28, -181020.92, 0.00, 0.00, 0.00
74, -175085.61, -180846.64, -174509.72, -180901.52, -180994.97, -180902.05, -181141.34, -180967.03, 0.00, 0.00, 0.00
75, -174594.92, -180757.67, -174137.66, -180810.77, -180905.83, -180813.22, -181052.52, -180878.30, 0.00, 0.00, 0.00
76, -174856.70, -180801.52, -174297.36, -180856.03, -180949.64, -180856.94, -181096.17, -180921.98, 0.00, 0.00, 0.00
77, -175395.31, -180905.00, -174849.28, -180960.36, -181053.23, -180960.25, -181199.34, -181025.13, 0.00, 0.00, 0.00
78, -175196.66, -180875.73, -174635.64, -180930.91, -181023.95, -180931.13, -181170.34, -180996.03, 0.00, 0.00, 0.00
79, -174620.14, -180769.70, -174179.94, -180823.06, -180917.86, -180825.25, -181064.69, -180890.38, 0.04, 0.10, 1.04
80, -174749.11, -180789.59, -174229.14, -180843.64, -180937.75, -180845.09, -181084.38, -180910.16, 0.00, 0.00, 0.00
81, -175366.86, -180905.64, -174842.25, -180961.11, -181053.92, -180960.97, -181200.05, -181025.91, 0.00, 0.00, 0.00
82, -175309.28, -180900.80, -174770.55, -180955.97, -181049.02, -180955.98, -181195.19, -181021.05, 0.00, 0.00, 0.00
83, -174661.05, -180785.75, -174235.63, -180839.53, -180933.91, -180841.05, -181080.55, -180906.34, 0.00, 0.00, 0.00
84, -174632.08, -180778.47, -174180.83, -180832.00, -180926.56, -180833.78, -181073.27, -180899.02, 0.00, 0.00, 0.00
85, -175314.98, -180901.36, -174827.05, -180956.67, -181049.64, -180956.67, -181195.81, -181021.59, 0.00, 0.00, 0.00
86, -175438.41, -180931.55, -174947.64, -180986.67, -181079.77, -180986.77, -181225.95, -181051.63, 0.00, 0.00, 0.00
87, -174725.81, -180809.88, -174326.86, -180864.28, -180957.95, -180865.19, -181104.58, -180930.34, 0.00, 0.00, 0.00
88, -174482.45, -180762.86, -174143.42, -180816.75, -180910.88, -180818.25, -181057.70, -180883.56, 0.00, 0.00, 0.00
89, -175236.47, -180893.25, -174829.81, -180948.41, -181041.44, -180948.55, -181187.73, -181013.50, 0.03, 0.06, 1.04
90, -175608.63, -180961.30, -175231.56, -181016.52, -181109.52, -181016.47, -181255.41, -181081.17, 0.00, 0.00, 0.00
91, -174808.50, -180828.20, -174432.83, -180883.31, -180976.30, -180883.61, -181122.84, -180948.70, 0.00, 0.00, 0.00
92, -174297.56, -180744.30, -174052.38, -180799.33, -180892.30, -180799.72, -181039.27, -180865.03, 0.00, 0.00, 0.00
93, -179128.58, -182875.86, -178950.31, -182927.50, -183023.28, -182924.33, -183163.16, -182986.89, 0.00, 0.00, 0.00
94, -187500.02, -187500.02, -187500.02, -187500.02, -187500.02, -187500.02, -187500.02, -187500.02, 0.00, 0.00, 0.00
95, -158057.86, -171967.63, -158309.84, -182228.89, -165194.08, -175242.05, -182559.63, -181737.05, 0.00, 0.00, 0.00
96, -77531.34, -119548.63, -78290.47, -166746.84, -96959.52, -131932.95, -167529.61, -163309.47, 0.00, 0.00, 0.00
97, -118843.93, -148610.98, -119565.55, -176238.63, -133122.30, -156941.86, -176656.33, -175083.22, 0.00, 0.00, 0.00
98, -185473.61, -187500.02, -185597.84, -187500.02, -187120.50, -187500.02, -187500.02, -187500.02, 0.00, 0.00, 0.00
99, -173578.67, -181566.17, -173789.08, -186403.75, -177892.75, -183288.05, -186683.59, -186294.59, 0.03, -0.01, 1.06
100, -95766.80, -133971.75, -96656.96, -172993.88, -113726.56, -144906.44, -174083.72, -170857.53, 0.00, 0.00, 0.00
101, -112659.78, -146400.20, -113624.91, -176153.33, -128702.62, -156066.42, -176751.89, -175183.56, 0.00, 0.00, 0.00
102, -182659.91, -187255.53, -182862.72, -187500.02, -185225.97, -187500.02, -187500.02, -187500.02, 0.00, 0.00, 0.00
103, -183822.58, -187500.02, -183969.41, -187500.02, -186064.56, -187500.02, -187500.02, -187500.02, 0.00, 0.00, 0.00
104, -116527.51, -148756.27, -117453.32, -177344.25, -132050.91, -157630.58, -177566.19, -176570.70, 0.00, 0.00, 0.00
105, -105579.38, -143359.70, -106804.50, -175858.63, -123406.68, -154354.59, -176080.59, -175233.58, 0.00, 0.00, 0.00
106, -176374.84, -184158.05, -176724.44, -187500.02, -180530.20, -185977.03, -187500.02, -187500.02, 0.00, 0.00, 0.00
107, -187500.02, -187500.02, -187500.02, -187500.02, -187500.02, -187500.02, -187500.02, -187500.02, 0.00, 0.00, 0.00
108, -127775.46, -154911.94, -128679.63, -178581.95, -141014.94, -162123.98, -179172.84, -177596.89, 0.00, 0.00, 0.00
109, -94928.88, -135502.80, -96396.84, -174001.94, -113927.13, -147476.73, -174757.13, -172583.25, 0.06, -0.01, 1.01
110, -167660.52, -179637.64, -168222.33, -186164.59, -173826.34, -182620.31, -186399.95, -186172.67, 0.00, 0.00, 0.00
111, -187500.02, -187500.02, -187500.02, -187500.02, -187500.02, -187500.02, -187500.02, -187500.02, 0.00, 0.00, 0.00
112, -138894.72, -160849.11, -139742.44, -179750.59, -149739.06, -166499.86, -180230.30, -178751.95, 0.00, 0.00, 0.00
113, -84243.30, -126429.80, -85919.66, -170477.52, -103873.85, -138924.94, -171256.05, -168011.73, 0.00, 0.00, 0.00
114, -154558.64, -171913.45, -155415.67, -183636.98, -163225.91, -176486.16, -183911.52, -183458.23, 0.00, 0.00, 0.00
115, -187500.02, -187500.02, -187500.02, -187500.02, -187500.02, -187500.02, -187500.02, -187500.02, 0.00, 0.00, 0.00
116, -169695.84, -182095.47, -170289.53, -185705.34, -176329.16, -184564.83, -185929.38, -185751.39, 0.00, 0.00, 0.00
117, -131460.75, -166657.70, -133188.45, -177695.06, -149457.42, -174062.03, -177921.56, -177746.63, 0.00, 0.00, 0.00
118, -174538.73, -185537.89, -175373.38, -186976.89, -181605.28, -186605.45, -187208.06, -187030.14, 0.00, 0.00, 0.00
119, -187500.02, -187500.02, -187500.02, -187500.02, -187500.02, -187500.02, -187500.02, -187500.02, 0.03, -0.05, 1.05
120, -187500.02, -187500.02, -187500.02, -187500.02, -187500.02, -187500.02, -187500.02, -187500.02, 0.00, 0.00, 0.00
121, -185590.75, -185624.25, -185627.13, -185671.73, -185770.48, -185662.61, -185896.17, -185719.34, 0.00, 0.00, 0.00
122, -187500.02, -187500.02, -187500.02, -187500.02, -187500.02, -187500.02, -187500.02, -187500.02, 0.00, 0.00, 0.00
123, -187500.02, -187500.02, -187500.02, -187500.02, -187500.02, -187500.02, -187500.02, -187500.02, 0.00, 0.00, 0.00
124, -187500.02, -187500.02, -187500.02, -187500.02, -187500.02, -187500.02, -187500.02, -187500.02, 0.00, 0.00, 0.00
125, -187500.02, -187500.02, -187500.02, -187500.02, -187500.02, -187500.02, -187500.02, -187500.02, 0.00, 0.00, 0.00
126, -187500.02, -187500.02, -187500.02, -187500.02, -187500.02, -187500.02, -187500.02, -187500.02, 0.00, 0.00, 0.00
127, -187500.02, -187500.02, -187500.02, -187500.02, -187500.02, -187500.02, -187500.02, -187500.02, 0.00, 0.00, 0.00
128, -187500.02, -187500.02, -187500.02, -187500.02, -187500.02, -187500.02, -187500.02, -187500.02, 0.00, 0.00, 0.00
129, -187500.02, -187500.02, -187500.02, -187500.02, -187500.02, -187500.02, -187500.02, -187500.02, 0.02, -0.07, 1.05
130, -187500.02, -187500.02, -187500.02, -187500.02, -187500.02, -187500.02, -187500.02, -187500.02, 0.00, 0.00, 0.00
131, -187500.02, -187500.02, -187500.02, -187500.02, -187500.02, -187500.02, -187500.02, -187500.02, 0.00, 0.00, 0.00
132, -187500.02, -187500.02, -187500.02, -187500.02, -187500.02, -187500.02, -187500.02, -187500.02, 0.00, 0.00, 0.00
133, -187500.02, -187500.02, -187500.02, -187500.02, -187500.02, -187500.02, -187500.02, -187500.02, 0.00, 0.00, 0.00
134, -187500.02, -187500.02, -187500.02, -187500.02, -187500.02, -187500.02, -187500.02, -187500.02, 0.00, 0.00, 0.00
135, -187500.02, -187500.02, -187500.02, -187500.02, -187500.02, -187500.02, -187500.02, -187500.02, 0.00, 0.00, 0.00
136, -187500.02, -187500.02, -187500.02, -187500.02, -187500.02, -187500.02, -187500.02, -187500.02, 0.00, 0.00, 0.00
137, -187500.02, -187500.02, -187500.02, -187500.02, -187500.02, -187500.02, -187500.02, -187500.02, 0.00, 0.00, 0.00
138, -187500.02, -187500.02, -187500.02, -187500.02, -187500.02, -187500.02, -187500.02, -187500.02, 0.00, 0.00, 0.00
139, -187500.02, -187500.02, -187500.02, -187500.02, -187500.02, -187500.02, -187500.02, -187500.02, 0.00, 0.00, 0.00
140, -187500.02, -187500.02, -187500.02, -187500.02, -187500.02, -187500.02, -187500.02, -187500.02, 0.02, -0.09, 1.05
141, -187500.02, -187500.02, -187500.02, -187500.02, -187500.02, -187500.02, -187500.02, -187500.02, 0.00, 0.00, 0.00
142, -187500.02, -187500.02, -187500.02, -187500.02, -187500.02, -187500.02, -187500.02, -187500.02, 0.00, 0.00, 0.00
143, -187500.02, -187500.02, -187500.02, -187500.02, -187500.02, -187500.02, -187500.02, -125786.54, 0.00, 0.00, 0.00
144, -187500.02, -187500.02, -187500.02, -187500.02, -187500.02, -187500.02, -187500.02, -90023.64, 0.00, 0.00, 0.00
145, -187500.02, -187500.02, -187500.02, -187500.02, -187500.02, -187500.02, -187500.02, -46648.11, 0.00, 0.00, 0.00
146, -187500.02, -187500.02, -187500.02, -187500.02, -187500.02, -187500.02, -187500.02, -14703.98, 0.00, 0.00, 0.00
147, -187500.02, -187500.02, -187500.02, -187500.02, -187500.02, -187500.02, -171300.30, 4698.92, 0.00, 0.00, 0.00
148, -187500.02, -187500.02, -187500.02, -187500.02, -187500.02, -187500.02, -150207.61, -987.10, 0.00, 0.00, 0.00
149, -187500.02, -187500.02, -187500.02, -187500.02, -187500.02, -187500.02, -156131.53, -83.08, 0.00, 0.00, 0.00
150, -187500.02, -187500.02, -187500.02, -187500.02, -187500.02, -187500.02, -152975.42, -6322.32, 0.04, -0.09, 1.05
151, -187500.02, -187500.02, -187500.02, -187500.02, -187500.02, -187500.02, -127839.32, -29583.40, 0.00, 0.00, 0.00
152, -187500.02, -187500.02, -187500.02, -187500.02, -187500.02, -187500.02, -112717.41, -41710.50, 0.00, 0.00, 0.00
153, -187500.02, -187500.02, -187500.02, -187500.02, -187500.02, -187500.02, -120698.52, -34093.36, 0.00, 0.00, 0.00
154, -187500.02, -187500.02, -187500.02, -187500.02, -187500.02, -187500.02, -121490.22, -27558.69, 0.00, 0.00, 0.00
155, -187500.02, -187500.02, -187500.02, -187500.02, -187500.02, -187500.02, -95721.37, -38602.07, 0.00, 0.00, 0.00
156, -187500.02, -187500.02, -187500.02, -187500.02, -187500.02, -187500.02, -76233.28, -52352.05, 0.00, 0.00, 0.00
157, -187500.02, -187500.02, -187500.02, -187500.02, -187500.02, -187500.02, -79381.34, -48980.43, 0.00, 0.00, 0.00
158, -187500.02, -187500.02, -187500.02, -187500.02, -187500.02, -187500.02, -81881.81, -39631.79, 0.00, 0.00, 0.00
159, -187500.02, -187500.02, -187500.02, -187500.02, -187500.02, -187500.02, -61818.69, -47061.20, 0.00, 0.00, 0.00
160, -187500.02, -187500.02, -187500.02, -187500.02, -187500.02, -187500.02, -44598.97, -60714.76, 0.02, -0.11, 1.05
161, -187500.02, -187500.02, -187500.02, -187500.02, -187500.02, -187500.02, -47762.10, -59005.32, 0.00, 0.00, 0.00
162, -176347.50, -187500.02, -187500.02, -187500.02, -187500.02, -187500.02, -52204.78, -50964.61, 0.00, 0.00, 0.00
163, -181896.86, -187500.02, -187500.02, -187500.02, -187500.02, -187500.02, -39078.05, -54358.26, 0.00, 0.00, 0.00
164, -187500.02, -187500.02, -187500.02, -187500.02, -187500.02, -182556.13, -24006.04, -65152.07, 0.00, 0.00, 0.00
165, -184727.14, -187500.02, -187500.02, -187500.02, -187500.02, -162090.48, -24384.21, -66560.07, 0.00, 0.00, 0.00
166, -159056.50, -187500.02, -187500.02, -187500.02, -187500.02, -147214.00, -28831.92, -59985.91, 0.00, 0.00, 0.00
167, -158596.63, -187500.02, -187500.02, -187500.02, -187500.02, -141003.66, -14049.90, -59228.66, 0.00, 0.00, 0.00
168, -175958.33, -187500.02, -187500.02, -187500.02, -187500.02, -136221.66, 14648.17, -66996.45, 0.00, 0.00, 0.00
169, -169189.53, -187500.02, -187500.02, -187500.02, -187500.02, -129076.23, 25703.90, -70697.11, 0.00, 0.00, 0.00
170, -146209.78, -187500.02, -187500.02, -187500.02, -187500.02, -124390.27, 20566.00, -66304.97, 0.03, -0.10, 1.05
171, -140750.67, -187500.02, -187500.02, -187500.02, -187500.02, -122845.25, 25303.98, -61977.59, 0.00, 0.00, 0.00
172, -160142.84, -187500.02, -187500.02, -187500.02, -187500.02, -120749.08, 43333.82, -66229.27, 0.00, 0.00, 0.00
173, -163601.36, -187500.02, -187500.02, -187500.02, -187500.02, -118974.51, 46380.56, -72821.51, 0.00, 0.00, 0.00
174, -145868.81, -187500.02, -187500.02, -187500.02, -187500.02, -119706.44, 34125.55, -73043.64, 0.00, 0.00, 0.00
175, -136630.86, -187500.02, -187500.02, -187500.02, -187500.02, -119665.11, 30915.12, -69257.55, 0.00, 0.00, 0.00
176, -156394.95, -187500.02, -187500.02, -187500.02, -187500.02, -114923.63, 51571.98, -69560.23, 0.00, 0.00, 0.00
177, -164184.44, -187500.02, -187500.02, -187500.02, -187500.02, -110778.70, 60589.90, -74485.45, 0.00, 0.00, 0.00
178, -149422.80, -187500.02, -187500.02, -187500.02, -187500.02, -111401.29, 49982.05, -75643.73, 0.00, 0.00, 0.00
179, -136877.20, -187500.02, -187500.02, -187500.02, -187500.02, -112707.08, 41725.54, -72109.30, 0.00, 0.00, 0.00
180, -153411.39, -187500.02, -187500.02, -187500.02, -187500.02, -109482.80, 58614.99, -70179.70, 0.04, -0.09, 1.07
181, -164064.44, -187500.02, -187500.02, -187500.02, -187500.02, -106523.60, 69098.41, -74339.09, 0.00, 0.00, 0.00
182, -152621.11, -187500.02, -187500.02, -187500.02, -187500.02, -106971.53, 60068.88, -76835.05, 0.00, 0.00, 0.00
183, -138304.47, -187500.02, -187500.02, -187500.02, -187500.02, -108811.40, 49006.29, -73924.70, 0.00, 0.00, 0.00
184, -150969.42, -187500.02, -187500.02, -187500.02, -187500.02, -105961.21, 61960.00, -70352.76, 0.00, 0.00, 0.00
185, -164209.34, -187500.02, -187500.02, -187500.02, -187500.02, -103036.64, 73576.53, -73596.54, 0.00, 0.00, 0.00
186, -155755.05, -187500.02, -187500.02, -187500.02, -187500.02, -103818.20, 66515.46, -77264.32, 0.00, 0.00, 0.00
187, -140611.67, -187500.02, -187500.02, -187500.02, -187500.02, -106791.13, 54311.81, -75338.66, 0.00, 0.00, 0.00
188, -148507.91, -187500.02, -187500.02, -187500.02, -187500.02, -104502.13, 63652.54, -70566.00, 0.00, 0.00, 0.00
189, -163777.86, -187500.02, -187500.02, -187500.02, -187500.02, -100258.39, 77211.51, -72524.77, 0.00, 0.00, 0.00
190, -158664.55, -187500.02, -187500.02, -187500.02, -187500.02, -100094.39, 72543.79, -77424.36, 0.02, -0.08, 1.05
191, -143361.09, -187500.02, -187500.02, -187500.02, -187500.02, -103402.43, 59348.93, -76881.93, 0.00, 0.00, 0.00
192, -145668.91, -187500.02, -187500.02, -187500.02, -187500.02, -102790.55, 63890.22, -71590.49, 0.00, 0.00, 0.00
193, -161727.66, -187500.02, -187500.02, -187500.02, -187500.02, -98413.74, 78586.59, -71881.71, 0.00, 0.00, 0.00
194, -160376.59, -187500.02, -187500.02, -187500.02, -187500.02, -97265.42, 77027.55, -77107.84, 0.00, 0.00, 0.00
195, -146010.27, -187500.02, -187500.02, -187500.02, -175017.17, -99781.80, 64281.63, -77493.30, 0.00, 0.00, 0.00
196, -143119.53, -187500.02, -187500.02, -187500.02, -170714.73, -99987.59, 63583.94, -72173.02, 0.00, 0.00, 0.00
197, -159291.80, -187500.02, -187500.02, -187500.02, -180574.48, -96011.71, 78230.08, -70307.50, 0.00, 0.00, 0.00
198, -162069.08, -187500.02, -187500.02, -187500.02, -179933.02, -94297.40, 79759.45, -75069.20, 0.00, 0.00, 0.00
199, -148964.27, -187500.02, -187500.02, -187500.02, -167638.80, -96428.24, 67615.99, -76556.22, 0.00, 0.00, 0.00
200, -141554.63, -187500.02, -187500.02, -187500.02, -160545.13, -97737.18, 62550.30, -72047.94, -0.00, -0.05, 1.08
201, -156937.16, -187500.02, -187500.02, -187500.02, -168779.11, -93593.92, 76975.00, -68919.12, 0.00, 0.00, 0.00
202, -163298.53, -187500.02, -187500.02, -187500.02, -169161.69, -91377.64, 81779.24, -73482.09, 0.00, 0.00, 0.00
203, -151697.53, -187500.02, -187500.02, -187500.02, -157119.33, -94220.38, 70854.54, -76241.13, 0.00, 0.00, 0.00
204, -141058.09, -187500.02, -187500.02, -187500.02, -147600.83, -98197.71, 62400.91, -72748.40, 0.00, 0.00, 0.00
205, -154563.98, -187500.02, -187500.02, -187500.02, -155547.91, -94531.36, 76130.46, -68003.28, 0.00, 0.00, 0.00
206, -163973.89, -187500.02, -187500.02, -187500.02, -159012.03, -90847.30, 83794.41, -71872.57, 0.00, 0.00, 0.00
207, -154373.17, -187500.02, -187500.02, -187500.02, -148581.00, -93395.06, 74246.44, -76467.48, 0.00, 0.00, 0.00
208, -142055.14, -187500.02, -187500.02, -187500.02, -137989.89, -98644.59, 63595.83, -74609.20, 0.00, 0.00, 0.00
209, -152357.67, -187500.02, -187500.02, -187500.02, -143781.30, -95896.22, 75122.89, -68867.31, 0.00, 0.00, 0.00
210, -163917.14, -187500.02, -187500.02, -187500.02, -150314.94, -90034.30, 84882.65, -71332.38, 0.15, -0.14, 1.13
211, -156672.22, -187500.02, -187500.02, -187500.02, -143093.89, -87469.70, 76973.48, -76852.31, 0.00, 0.00, 0.00
212, -143385.00, -187500.02, -187500.02, -187500.02, -131769.55, -89197.07, 64773.48, -76188.98, 0.00, 0.00, 0.00
213, -149631.77, -187500.02, -187500.02, -187500.02, -135999.39, -88331.23, 73174.76, -69909.30, 0.00, 0.00, 0.00
214, -163741.31, -187500.02, -187500.02, -187500.02, -145782.31, -87992.38, 83247.86, -72460.42, 0.00, 0.00, 0.00
215, -160214.61, -187500.02, -187500.02, -187500.02, -140682.56, -90356.45, 76453.29, -79782.88, 0.00, 0.00, 0.00
216, -147135.69, -187500.02, -187500.02, -187500.02, -127938.20, -94795.47, 63155.77, -80751.33, 0.00, 0.00, 0.00
217, -148608.00, -187500.02, -187500.02, -187500.02, -129162.55, -94631.74, 67838.68, -74250.86, 0.00, 0.00, 0.00
218, -164294.97, -187500.02, -187500.02, -187500.02, -144141.05, -92310.49, 79747.06, -75020.07, 0.00, 0.00, 0.00
219, -164408.47, -187500.02, -187500.02, -187500.02, -144221.83, -92286.20, 77221.30, -81363.72, 0.00, 0.00, 0.00
220, -150025.42, -187500.02, -187500.02, -187500.02, -129859.59, -93804.84, 67827.55, -80016.02, 0.06, -0.13, 1.05
221, -146557.30, -187500.02, -187500.02, -187500.02, -126424.84, -95840.50, 67751.73, -73987.00, 0.00, 0.00, 0.00
222, -162782.14, -187500.02, -187500.02, -187500.02, -142680.83, -95031.66, 77136.16, -74899.09, 0.00, 0.00, 0.00
223, -166127.38, -187500.02, -187500.02, -187500.02, -146042.19, -92522.54, 76711.16, -80664.98, 0.00, 0.00, 0.00
224, -154627.94, -187500.02, -187500.02, -187500.02, -134555.55, -90459.43, 67392.01, -80877.68, 0.00, 0.00, 0.00
225, -148744.95, -187500.02, -187500.02, -187500.02, -128693.27, -87980.69, 63041.04, -76050.11, 0.00, 0.00, 0.00
226, -160798.69, -187500.02, -187500.02, -187500.02, -140770.25, -84335.86, 70399.81, -74788.84, 0.00, 0.00, 0.00
227, -164766.02, -187500.02, -187500.02, -187500.02, -144746.16, -79201.21, 71090.08, -79411.97, 0.00, 0.00, 0.00
228, -157477.00, -187500.02, -187500.02, -187500.02, -137462.89, -73766.38, 62837.52, -81906.47, 0.00, 0.00, 0.00
229, -152548.42, -187500.02, -187500.02, -187500.02, -132551.41, -69950.03, 55422.49, -79505.27, 0.00, 0.00, 0.00
230, -160187.03, -187500.02, -187500.02, -187500.02, -140209.38, -66516.51, 56592.02, -77502.62, 0.00, -0.07, 1.05
231, -163061.63, -187500.02, -187500.02, -187500.02, -143086.55, -58541.34, 53984.29, -82116.66, 0.00, 0.00, 0.00
232, -158894.39, -187500.02, -187500.02, -187500.02, -138918.66, -43230.38, 48588.62, -86519.29, 0.00, 0.00, 0.00
233, -156170.67, -187500.02, -187500.02, -187500.02, -136208.00, -37314.70, 45100.57, -85498.08, 0.00, 0.00, 0.00
234, -160023.69, -187500.02, -187500.02, -187500.02, -140081.16, -41046.43, 48299.39, -81555.79, 0.00, 0.00, 0.00
235, -161182.38, -187500.02, -187500.02, -187500.02, -141244.38, -42270.16, 47948.29, -81840.93, 0.00, 0.00, 0.00
236, -159227.88, -187500.02, -187500.02, -187500.02, -139291.23, -40405.38, 53438.75, -82268.72, 0.00, 0.00, 0.00
237, -157079.41, -187500.02, -187500.02, -187500.02, -137156.56, -38354.05, 56165.02, -77707.65, 0.00, 0.00, 0.00
238, -159244.97, -187500.02, -187500.02, -187500.02, -139338.88, -40521.54, 58083.31, -67118.73, 0.00, 0.00, 0.00
239, -159567.36, -187500.02, -187500.02, -187500.02, -139663.34, -40864.53, 66770.80, -61820.61, 0.00, 0.00, 0.00
240, -156336.52, -187500.02, -187500.02, -187500.02, -136430.73, -37724.07, 76105.30, -48554.80, -0.03, -0.05, 1.06
241, -151961.95, -187500.02, -187500.02, -187500.02, -132066.03, -33479.89, 80874.17, -13694.42, 0.00, 0.00, 0.00
242, -152229.83, -187500.02, -187500.02, -187500.02, -132364.36, -33799.95, 80423.61, 19899.60, 0.00, 0.00, 0.00
243, -173282.03, -187500.02, -187500.02, -187500.02, -158065.11, -69614.15, 43709.13, 15766.29, 0.00, 0.00, 0.00
244, -187500.02, -187500.02, -187500.02, -187500.02, -187500.02, -160195.75, -49083.42, -22849.32, 0.00, 0.00, 0.00
245, -187500.02, -187500.02, -187500.02, -187500.02, -185171.61, -124808.88, -27961.52, -3155.69, 0.00, 0.00, 0.00
246, -113849.68, -187500.02, -187500.02, -187500.02, -95707.84, -1234.40, 27469.15, 57296.75, 0.00, 0.00, 0.00
247, -122780.68, -187500.02, -187500.02, -187500.02, -104477.77, -6887.69, 19872.85, 31125.61, 0.00, 0.00, 0.00
248, -187500.02, -187500.02, -187500.02, -187500.02, -181545.83, -96489.44, 40941.51, -75670.71, 0.00, 0.00, 0.00
249, -187500.02, -187500.02, -187500.02, -187500.02, -165918.64, -90510.80, 86727.54, -69735.80, 0.00, 0.00, 0.00
250, -114554.59, -187500.02, -187500.02, -187500.02, -122437.55, -18852.98, 100430.70, 39287.53, -0.10, -0.02, 0.98
251, -101530.94, -187500.02, -187500.02, -187500.02, -130845.27, -21095.46, 86354.46, 54379.80, 0.00, 0.00, 0.00
252, -181574.25, -187500.02, -187500.02, -187500.02, -177459.14, -113719.39, 75369.81, -51212.70, 0.00, 0.00, 0.00
253, -187500.02, -187500.02, -187500.02, -187500.02, -162348.56, -131396.06, 96792.55, -74932.95, 0.00, 0.00, 0.00
254, -119530.02, -187500.02, -187500.02, -187500.02, -82684.20, -27142.71, 174485.73, 32625.12, 0.00, 0.00, 0.00
255, -77046.51, -187500.02, -187500.02, -187500.02, -57554.93, 17399.18, 187500.00, 79417.55, 0.00, 0.00, 0.00
0, -157196.94, -187500.02, -187500.02, -187500.02, -80336.05, -67636.84, 151757.08, -8594.69, 0.00, 0.00, 0.00
1, -187500.02, -187500.02, -187500.02, -187500.02, -75831.40, -112789.42, 117001.86, -56266.52, 0.00, 0.00, 0.00
2, -118971.29, -187500.02, -187500.02, -187500.02, -59297.99, -24614.59, 174951.08, 34728.44, 0.00, 0.00, 0.00
3, -54046.76, -187500.02, -187500.02, -187500.02, -61626.68, 39694.15, 187500.00, 101895.32, 0.00, 0.00, 0.00
4, -131330.48, -187500.02, -187500.02, -187500.02, -68340.99, -40188.97, 166438.30, 19508.47, -0.10, -0.03, 1.02
5, -187500.02, -187500.02, -187500.02, -187500.02, -33639.98, -113135.41, 116712.55, -56848.00, 0.00, 0.00, 0.00
6, -133545.34, -187500.02, -187500.02, -187500.02, 19868.53, -39653.60, 166735.53, 18682.28, 0.00, 0.00, 0.00
7, -46724.84, -187500.02, -187500.02, -187500.02, 33902.41, 46629.16, 187500.00, 108505.96, 0.00, 0.00, 0.00
8, -102684.38, -187500.02, -187500.02, -187500.02, 992.15, -8594.38, 184285.17, 51806.56, 0.00, 0.00, 0.00
9, -187500.02, -187500.02, -187500.02, -172708.73, -14351.18, -95361.70, 133640.83, -38739.57, 0.00, 0.00, 0.00
10, -144803.06, -187500.02, -187500.02, -162152.52, -13483.47, -49831.25, 164345.20, 7757.55, 0.00, 0.00, 0.00
11, -50195.58, -187500.02, -187500.02, -164592.61, -24501.40, 43029.68, 187500.00, 104363.78, 0.00, 0.00, 0.00
12, -82630.73, -187500.02, -187500.02, -153138.20, -40215.10, 11220.67, 187500.00, 71961.69, 0.00, 0.00, 0.00
13, -179244.05, -187500.02, -187500.02, -128385.20, -44685.94, -83486.71, 143276.06, -26617.78, 0.00, 0.00, 0.00
14, -157968.05, -187500.02, -187500.02, -127516.50, -40602.48, -62583.30, 158364.78, -5782.26, -0.11, -0.01, 1.05
15, -58732.56, -187500.02, -174097.16, -146909.30, -50810.03, 34496.50, 187500.00, 95124.20, 0.00, 0.00, 0.00
16, -66706.86, -187500.02, -175938.67, -136683.58, -64199.06, 27280.68, 187500.00, 87578.87, 0.00, 0.00, 0.00
17, -166487.09, -187500.02, -187500.02, -92794.36, -63154.05, -65485.42, 151975.92, -13741.03, 0.00, 0.00, 0.00
18, -169081.38, -187500.02, -182836.38, -88838.23, -53671.32, -68332.37, 151958.02, -17367.86, 0.00, 0.00, 0.00
19, -67232.41, -187500.02, -139238.20, -130782.29, -52362.07, 18853.00, 187500.00, 85876.56, 0.00, 0.00, 0.00
20, -48665.76, -187500.02, -135760.11, -127628.99, -64732.66, 30889.13, 187500.00, 105259.81, 0.00, 0.00, 0.00
21, -146765.84, -187500.02, -168478.38, -64224.07, -74778.20, -56851.13, 163596.75, 5835.50, 0.00, 0.00, 0.00
22, -175742.28, -187500.02, -168924.63, -47525.08, -69472.88, -81749.91, 148463.77, -24562.71, 0.00, 0.00, 0.00
23, -80575.60, -187500.02, -130855.78, -95797.05, -62255.26, -2630.46, 187500.00, 71795.79, 0.00, 0.00, 0.00
24, -37041.36, -187500.02, -120150.14, -106726.91, -68644.57, 30389.92, 187500.00, 116480.16, 0.00, 0.00, 0.00
25, -127123.13, -187500.02, -146928.98, -48693.68, -76976.39, -47346.49, 173119.86, 25390.15, -0.12, -0.03, 1.04
26, -183283.27, -187500.02, -155339.36, -29880.50, -73889.92, -94012.66, 142902.09, -32430.44, 0.00, 0.00, 0.00
27, -100641.54, -187500.02, -125066.45, -82989.88, -68090.16, -27805.81, 185587.00, 50938.19, 0.00, 0.00, 0.00
28, -32410.95, -187500.02, -103098.71, -103626.06, -67151.34, 22813.75, 187500.00, 120617.88, 0.00, 0.00, 0.00
29, -102512.05, -187500.02, -122064.08, -52137.23, -68005.20, -33289.03, 185432.81, 49880.55, 0.00, 0.00, 0.00
30, -175427.61, -187500.02, -140911.58, -27902.64, -67701.84, -87980.27, 150440.05, -24914.46, 0.00, 0.00, 0.00
31, -108078.99, -187500.02, -120388.13, -74701.45, -68376.40, -40809.32, 183456.50, 42934.39, 0.00, 0.00, 0.00
32, -13427.59, -187500.02, -92145.71, -99406.19, -66843.80, 23470.11, 187500.00, 139250.56, 0.00, 0.00, 0.00
33, -64700.90, -187500.02, -104334.97, -45998.93, -63112.20, -15207.92, 187500.00, 87741.10, 0.00, 0.00, 0.00
34, -164492.09, -187500.02, -128748.93, -9679.24, -64175.30, -85378.52, 164867.78, -13977.37, 0.00, 0.00, 0.00
35, -122251.86, -187500.02, -111958.70, -52346.84, -67829.70, -60504.98, 184187.63, 28176.90, -0.15, -0.06, 1.03
36, -17791.00, -187500.02, -78313.00, -86214.01, -65296.86, 553.23, 187500.00, 134388.36, 0.00, 0.00, 0.00
37, -45624.38, -187500.02, -89478.70, -43585.23, -57906.91, -20989.40, 187500.00, 106652.41, 0.00, 0.00, 0.00
38, -156787.61, -187500.02, -125461.88, 1035.49, -56791.87, -87590.74, 144692.25, -6289.56, 0.00, 0.00, 0.00
39, -138907.45, -187500.02, -107630.64, -34745.07, -59461.02, -77124.83, 154710.66, 10943.68, 0.00, 0.00, 0.00
40, -9442.00, -187500.02, -44415.46, -89732.77, -56919.92, -8409.73, 187500.00, 142233.06, 0.00, 0.00, 0.00
41, -2175.54, -187500.02, -48116.26, -57984.87, -47229.14, -7915.91, 187500.00, 149992.97, 0.00, 0.00, 0.00
42, -128973.45, -187500.02, -124054.81, 5145.64, -40424.94, -76337.28, 140391.17, 21710.81, 0.00, 0.00, 0.00
43, -148844.53, -187500.02, -128904.20, -13487.62, -42015.49, -85549.09, 129746.38, 604.53, 0.00, 0.00, 0.00
44, -25307.18, -187500.02, -47929.43, -66842.71, -41446.55, -22451.99, 187500.00, 125804.13, 0.00, 0.00, 0.00
45, 7743.76, -187500.02, -28331.04, -55948.76, -36939.59, -11460.79, 187500.00, 159677.92, -0.07, -0.05, 1.10
46, -125355.04, -187500.02, -102986.35, -3222.50, -37942.46, -80256.82, 133174.06, 24963.99, 0.00, 0.00, 0.00
47, -167397.73, -187500.02, -115901.88, -7899.91, -36798.86, -95681.51, 106050.71, -18499.85, 0.00, 0.00, 0.00
48, -34682.95, -187500.02, -30052.41, -50569.79, -29422.18, -31367.36, 183205.80, 113842.93, 0.00, 0.00, 0.00
49, 30719.66, -182845.80, 1957.50, -63016.65, -29880.30, -10937.09, 187500.00, 179260.61, 0.00, 0.00, 0.00
50, -94951.21, -187500.02, -75288.12, -43165.22, -44590.66, -77871.59, 149763.03, 54535.21, 0.00, 0.00, 0.00
51, -183313.89, -187500.02, -120971.34, -43091.17, -57703.73, -120326.32, 89986.45, -36810.46, 0.00, 0.00, 0.00
52, -79832.56, -187500.02, -88892.02, -113301.59, -84803.68, -98975.42, 163728.33, 69778.30, 0.00, 0.00, 0.00
53, 19040.04, -187500.02, -71104.30, -150304.13, -105140.63, -83416.20, 187500.00, 170221.72, 0.00, 0.00, 0.00
54, -57171.96, -187500.02, -55093.61, -18229.95, -37881.82, -63439.88, 181119.22, 93513.80, 0.00, 0.00, 0.00
55, -159548.00, -187500.02, -40146.19, 70949.24, 12652.07, -54160.00, 123164.10, -10819.07, -0.10, -0.06, 1.06
56, -100498.60, -187500.02, -62624.15, -59259.10, -51149.55, -88112.90, 161276.97, 48530.04, 0.00, 0.00, 0.00
57, 4724.18, -187500.02, -92405.70, -163018.84, -119692.49, -118651.21, 187500.00, 155408.80, 0.00, 0.00, 0.00
58, -42566.53, -187500.02, -80515.02, -56724.86, -71909.70, -84744.11, 187500.00, 107979.93, 0.00, 0.00, 0.00
59, -154592.53, -187500.02, -54531.10, 61484.86, 1835.99, -40228.47, 126879.38, -5928.44, 0.00, 0.00, 0.00
60, -119872.78, -187500.02, -57432.09, -39239.58, -29191.31, -75886.31, 152718.98, 28555.78, 0.00, 0.00, 0.00
61, -2692.98, -187500.02, -73642.13, -157325.86, -113801.18, -135823.75, 187500.00, 147494.81, 0.00, 0.00, 0.00
62, -21281.61, -187500.02, -79358.68, -80974.71, -81002.97, -108482.60, 187500.00, 129094.53, 0.00, 0.00, 0.00
63, -143432.72, -187500.02, -75382.41, 46651.17, 6615.00, -47908.57, 123958.70, 5243.36, 0.00, 0.00, 0.00
64, -137588.42, -187500.02, -63785.95, 13512.37, -35346.06, -73395.82, 130212.56, 10306.61, 0.00, 0.00, 0.00
65, -12252.89, -176396.88, -49718.41, -76034.62, -138093.09, -137169.13, 187500.00, 137387.16, -0.11, -0.05, 1.05
66, -1403.82, -175252.09, -54831.33, -57861.42, -108553.39, -122465.23, 187500.00, 148725.00, 0.00, 0.00, 0.00
67, -126463.57, -187500.02, -75018.98, 33357.68, -2140.49, -53117.67, 136814.16, 22208.58, 0.00, 0.00, 0.00
68, -154626.84, -187500.02, -63491.40, 14393.52, -34836.38, -67599.25, 117691.88, -7221.71, 0.00, 0.00, 0.00
69, -38497.44, -171190.91, -39112.78, -86168.12, -152102.41, -153988.47, 187451.64, 110453.45, 0.00, 0.00, 0.00
70, 5086.79, -154912.92, -38106.57, -76286.81, -136270.44, -152525.86, 187500.00, 154871.13, 0.00, 0.00, 0.00
71, -106059.96, -187500.02, -62426.43, 27516.14, -4487.81, -56309.63, 150840.83, 42581.52, 0.00, 0.00, 0.00
72, -165779.66, -187500.02, -66372.52, 41887.35, -7117.91, -45434.75, 108585.64, -18772.49, 0.00, 0.00, 0.00
73, -63811.05, -173481.81, -34485.10, -44810.48, -133339.03, -141068.92, 175140.63, 84388.80, 0.00, 0.00, 0.00
74, 9966.51, -139941.05, -19897.01, -75323.95, -147279.47, -163420.08, 187500.00, 159364.41, 0.00, 0.00, 0.00
75, -83085.73, -181171.67, -37480.01, -8113.86, -24464.45, -64634.25, 164948.88, 65513.72, -0.10, -0.02, 1.05
76, -168539.23, -187500.02, -43732.41, 26545.00, 1450.58, -31709.35, 106393.31, -21795.23, 0.00, 0.00, 0.00
77, -85932.38, -169936.53, -20050.30, -28273.79, -118642.95, -131969.77, 163505.67, 61568.30, 0.00, 0.00, 0.00
78, 10473.04, -110413.08, -2983.71, -67048.33, -159417.70, -171373.20, 187500.00, 159426.94, 0.00, 0.00, 0.00
79, -61898.62, -156266.06, -33727.20, -40951.66, -50962.22, -68014.84, 175960.73, 86591.28, 0.00, 0.00, 0.00
80, -171792.28, -187500.02, -61024.37, -12778.72, 1944.51, -10785.36, 102667.35, -25219.88, 0.00, 0.00, 0.00
81, -112714.79, -177811.00, -27729.10, -23406.01, -97525.06, -123362.67, 146567.02, 34037.59, 0.00, 0.00, 0.00
82, 3533.86, -103516.18, 4429.94, -49268.81, -163310.22, -173664.39, 187500.00, 151943.64, 0.00, 0.00, 0.00
83, -38002.39, -135007.59, -10439.56, -24805.83, -108399.07, -36323.10, 187500.00, 110283.50, 0.00, 0.00, 0.00
84, -160982.16, -187500.02, -30009.88, 31929.85, -44596.85, 80518.18, 111667.79, -14585.65, 0.00, 0.00, 0.00
85, -140325.61, -187500.02, -22876.79, 34834.68, -97233.20, -81089.82, 128488.30, 5693.75, -0.19, 0.00, 1.05
86, -19902.53, -123251.45, -21086.48, 8078.43, -170196.02, -165573.92, 187500.00, 127867.30, 0.00, 0.00, 0.00
87, -18635.48, -124185.33, -14613.59, 11808.07, -58805.56, -14240.16, 187500.00, 129427.77, 0.00, 0.00, 0.00
88, -122967.49, -187500.02, 22967.49, 63122.00, 144433.59, 174176.70, 145889.30, 23583.39, 0.00, 0.00, 0.00
89, -138627.13, -187500.02, -7082.75, 29486.78, 69627.78, 187500.00, 139152.25, 13064.86, 0.00, 0.00, 0.00
90, -66464.54, -182684.88, -70095.80, -33361.21, -148020.69, 187500.00, 187500.00, 125385.39, 0.00, 0.00, 0.00
91, -57965.76, -174458.41, -73816.88, -67041.62, -78496.48, 187500.00, 187500.00, 152526.84, 0.00, 0.00, 0.00
92, -122571.51, -136073.33, 11020.84, -85272.62, 115772.71, 187500.00, 153195.13, 38437.71, 0.00, 0.00, 0.00
93, -131117.88, -108944.39, 21553.52, -67365.16, 157069.28, 187500.00, 136378.72, 10537.35, 0.00, 0.00, 0.00
94, -101336.55, -88884.01, -14315.53, -38689.28, 187500.00, 187500.00, 187500.00, 137374.36, 0.00, 0.00, 0.00
95, -89504.20, -94570.00, -28178.64, -40364.48, 187500.00, 187500.00, 187500.00, 186029.88, -0.18, -0.04, 1.02
96, -90395.10, -115429.01, -32885.38, -17062.27, 168578.66, 187500.00, 166790.64, 71268.96, 0.00, 0.00, 0.00
97, -89143.65, -120063.80, -40354.26, -28615.37, 132500.33, 187500.00, 129568.99, -239.43, 0.00, 0.00, 0.00
98, -99445.01, -132146.25, -66510.74, -88316.14, 185898.17, 187500.00, 184716.39, 105990.29, 0.00, 0.00, 0.00
99, -102430.35, -140043.98, -75166.70, -109079.86, 187500.00, 187500.00, 187500.00, 185950.64, 0.00, 0.00, 0.00
100, -66960.02, -119994.98, -44894.91, -56144.50, 181180.17, 187500.00, 180026.89, 95394.91, 0.00, 0.00, 0.00
101, -45149.88, -103629.21, -24097.95, -23768.22, 134724.64, 187500.00, 132246.53, 1868.25, 0.00, 0.00, 0.00
102, -72120.78, -124348.23, -52532.50, -66786.66, 178451.53, 187500.00, 177125.98, 83623.95, 0.00, 0.00, 0.00
103, -91466.40, -143100.17, -76828.38, -105037.08, 187500.00, 187500.00, 187500.00, 184700.48, 0.00, 0.00, 0.00
104, -61497.45, -114807.27, -50778.02, -70602.36, 187500.00, 187500.00, 187500.00, 120344.70, 0.00, 0.00, 0.00
105, -27812.32, -85833.22, -24745.12, -35484.64, 137247.89, 187500.00, 135067.19, 6286.16, -0.22, -0.04, 1.01
106, -58333.16, -113047.66, -61112.48, -80723.30, 167722.36, 187500.00, 166197.94, 57455.74, 0.00, 0.00, 0.00
107, -97523.85, -151679.61, -105164.06, -137575.30, 187500.00, 187500.00, 187500.00, 174313.11, 0.00, 0.00, 0.00
108, -61433.23, -128670.92, -68454.36, -97716.66, 187500.00, 187500.00, 187500.00, 140578.75, 0.00, 0.00, 0.00
109, 146.31, -85739.55, -15577.98, -33393.21, 146136.66, 187500.00, 144225.25, 19051.53, 0.00, 0.00, 0.00
110, -31819.70, -108047.26, -54440.91, -74303.86, 158180.56, 187500.00, 156475.34, 36516.11, 0.00, 0.00, 0.00
111, -93443.38, -158023.25, -119997.05, -149212.48, 187500.00, 187500.00, 187500.00, 158184.77, 0.00, 0.00, 0.00
112, -62938.69, -139809.59, -83084.05, -119232.49, 187500.00, 187500.00, 187500.00, 157010.78, 0.00, 0.00, 0.00
113, 23073.32, -83175.22, -4607.48, -41570.49, 157705.13, 187500.00, 156059.78, 37020.66, 0.00, 0.00, 0.00
114, 4404.72, -95325.70, -33152.35, -60620.19, 151742.33, 187500.00, 149892.45, 23022.34, 0.00, 0.00, 0.00
115, -71641.23, -156285.06, -117643.13, -137940.86, 187500.00, 187500.00, 187500.00, 140320.27, -0.18, -0.03, 1.03
116, -66635.78, -150233.80, -95233.34, -129099.89, 187500.00, 187500.00, 187500.00, 169492.63, 0.00, 0.00, 0.00
117, 6211.62, -85999.14, -3797.14, -54569.82, 167389.73, 187500.00, 165983.02, 55749.32, 0.00, 0.00, 0.00
118, 9290.32, -83577.88, -15075.40, -57392.97, 144877.00, 187500.00, 142889.25, 11538.51, 0.00, 0.00, 0.00
119, -64889.13, -151503.30, -112461.13, -138579.53, 187500.00, 187500.00, 187500.00, 116487.43, 0.00, 0.00, 0.00
120, -73243.38, -162158.50, -108888.46, -144203.48, 187500.00, 187500.00, 187500.00, 175529.09, 0.00, 0.00, 0.00
121, 24171.82, -85102.90, 4715.01, -50507.61, 182320.64, 187500.00, 181248.02, 83183.20, 0.00, 0.00, 0.00
122, 52255.63, -58824.65, 20661.75, -31213.25, 148615.42, 187500.00, 146563.88, 13280.53, 0.00, 0.00, 0.00
123, -48194.45, -132161.34, -93455.13, -126909.09, 187500.00, 187500.00, 186716.39, 94243.31, 0.00, 0.00, 0.00
124, -88734.99, -169050.34, -125501.38, -163444.20, 187500.00, 187500.00, 187500.00, 174302.58, 0.00, 0.00, 0.00
125, 1443.34, -108835.02, -22304.40, -82352.90, 187500.00, 187500.00, 187309.48, 100606.27, -0.24, -0.05, 0.98
126, 43646.72, -77238.75, 13103.91, -50270.61, 138922.19, 187500.00, 138939.78, 5453.36, 0.00, 0.00, 0.00
127, -53812.49, -138516.61, -92564.92, -133538.23, 170036.48, 187500.00, 173001.67, 62021.28, 0.00, 0.00, 0.00
128, -119659.08, -181310.22, -153808.58, -179895.53, 187500.00, 187500.00, 187500.00, 158808.36, 0.00, 0.00, 0.00
129, -15560.99, -127420.23, -43900.32, -105938.48, 183642.84, 187500.00, 187500.00, 115914.40, 0.00, 0.00, 0.00
130, 85749.07, -54026.64, 49080.99, -23121.13, 114454.88, 187500.00, 145941.39, 13917.00, 0.00, 0.00, 0.00
131, -5881.06, -110248.01, -51805.89, -107416.02, 122236.52, 187500.00, 163727.94, 41965.09, 0.00, 0.00, 0.00
132, -112542.68, -178652.39, -154965.95, -180200.63, 173466.70, 187500.00, 187500.00, 147093.70, 0.00, 0.00, 0.00
133, -35331.31, -145127.55, -65754.05, -127477.67, 142580.95, 187500.00, 187500.00, 131416.94, 0.00, 0.00, 0.00
134, 81953.80, -60640.32, 55559.82, -21232.08, 66214.18, 187500.00, 150636.98, 22116.96, 0.00, 0.00, 0.00
135, 16208.88, -95126.72, -23465.06, -88593.35, 50776.14, 187500.00, 151049.58, 20885.78, -0.13, -0.06, 1.05
136, -107599.20, -173703.98, -152195.38, -177299.08, 76546.83, 187500.00, 187500.00, 125840.05, 0.00, 0.00, 0.00
137, -60440.21, -158800.72, -90485.31, -142350.66, 63863.54, 187500.00, 187500.00, 138924.89, 0.00, 0.00, 0.00
138, 74568.05, -64613.19, 60370.99, -13569.32, 23241.37, 187500.00, 160473.53, 36575.75, 0.00, 0.00, 0.00
139, 48070.04, -78825.26, 3657.26, -64561.69, 810.61, 187500.00, 142303.16, 7231.28, 0.00, 0.00, 0.00
140, -74213.91, -165126.88, -144812.50, -171472.45, -19368.84, 187500.00, 187500.00, 101334.00, 0.00, 0.00, 0.00
141, -80010.99, -167398.58, -114955.63, -160211.39, -40957.78, 187500.00, 187500.00, 138800.48, 0.00, 0.00, 0.00
142, 26017.45, -70288.68, 55239.50, -17890.78, -30898.58, 187500.00, 169203.50, 49953.87, 0.00, 0.00, 0.00
143, 34947.44, -58805.71, 41130.25, -29937.63, -35949.07, 187500.00, 135362.86, -2309.63, 0.00, 0.00, 0.00
144, -79377.73, -153141.31, -124906.70, -158571.94, -85393.25, 187500.00, 183263.95, 74399.27, 0.00, 0.00, 0.00
145, -120040.27, -175985.25, -135245.23, -172424.30, -115643.90, 187500.00, 187500.00, 133517.52, -0.11, 0.02, 1.03
146, -35413.70, -80628.91, 42070.50, -31030.84, -85529.22, 187500.00, 177761.03, 63456.13, 0.00, 0.00, 0.00
147, -30122.55, -69507.06, 27603.49, -44535.25, -83022.06, 187500.00, 145743.56, 7597.36, 0.00, 0.00, 0.00
148, -126473.36, -159306.59, -126681.39, -167296.44, -137952.59, 187500.00, 180451.53, 49977.67, 0.00, 0.00, 0.00
149, -160864.41, -182158.59, -143271.92, -175637.36, -167193.20, 187500.00, 187500.00, 84689.51, 0.00, 0.00, 0.00
150, -60973.86, -85460.57, 45251.17, -20725.14, -107660.48, 187500.00, 153057.44, 18999.12, 0.00, 0.00, 0.00
151, -11839.07, -32104.39, 92168.91, 27174.11, -67088.65, 187500.00, 79199.65, -60569.80, 0.00, 0.00, 0.00
152, -124216.26, -143605.55, -107062.26, -145837.02, -141081.34, 187500.00, 117872.84, -21305.15, 0.00, 0.00, 0.00
153, -186130.03, -187500.02, -167761.66, -187500.02, -187500.02, 187500.00, 178436.89, 41070.61, 0.00, 0.00, 0.00
154, -131907.47, -144392.48, -30356.93, -95371.41, -151752.33, 187500.00, 122821.27, -15384.64, 0.00, 0.00, 0.00
155, -105982.36, -119869.02, -9097.74, -79360.07, -128740.77, 187500.00, 68020.45, -71506.94, -0.14, 0.03, 1.01
156, -161799.72, -184048.81, -144911.83, -186684.77, -172900.55, 187500.00, 122341.46, -16287.98, 0.00, 0.00, 0.00
157, -164821.83, -184754.53, -137348.31, -176930.95, -178349.28, 187500.00, 162613.55, 25057.94, 0.00, 0.00, 0.00
158, -119038.57, -140437.91, -35273.64, -108961.60, -138249.67, 187500.00, 127623.67, -10864.65, 0.00, 0.00, 0.00
159, -108872.30, -127392.73, -29734.64, -104329.05, -124925.28, 187500.00, 106205.38, -32934.49, 0.00, 0.00, 0.00
160, -123991.88, -149234.92, -79737.41, -152202.50, -138617.84, 187500.00, 130893.42, -7179.65, 0.00, 0.00, 0.00
161, -126322.87, -154996.80, -85803.80, -157558.27, -143258.25, 187500.00, 151018.48, 13606.45, 0.00, 0.00, 0.00
162, -106089.18, -129764.41, -35506.32, -106370.65, -124233.20, 187500.00, 131677.44, -6532.57, 0.00, 0.00, 0.00
163, -92767.98, -113027.54, -15338.06, -84013.84, -108816.94, 187500.00, 112901.23, -25934.79, 0.00, 0.00, 0.00
164, -103157.25, -128693.49, -55462.43, -121255.02, -118041.37, 187500.00, 131391.78, -6618.73, 0.00, 0.00, 0.00
165, -112016.63, -141785.22, -75060.89, -139821.38, -127192.33, 187500.00, 152425.33, 15243.84, 0.00, 0.00, 0.00
166, -98166.42, -124374.76, -33910.41, -95773.06, -113516.28, 187500.00, 138259.17, -105.90, -0.18, 0.03, 0.98
167, -81873.86, -104845.97, -4768.12, -65397.76, -97520.86, 187500.00, 118168.26, -22590.06, 0.00, 0.00, 0.00
168, -86190.60, -113463.22, -34151.14, -95762.94, -102882.23, 187500.00, 130289.41, -18469.00, 0.00, 0.00, 0.00
169, -96508.44, -127228.02, -57741.19, -119599.77, -112569.95, 187500.00, 149202.92, -10723.16, 0.00, 0.00, 0.00
170, -93511.11, -117948.84, -29875.41, -90869.74, -104377.66, 187500.00, 140100.70, -24433.74, 0.00, 0.00, 0.00
171, -82178.80, -102061.66, -1806.04, -64538.71, -90689.20, 187500.00, 122354.00, -42376.20, 0.00, 0.00, 0.00
172, -77569.88, -104973.22, -17949.57, -85769.83, -91578.31, 187500.00, 128535.49, -48860.35, 0.00, 0.00, 0.00
173, -79915.89, -115828.08, -39543.21, -110384.02, -99483.90, 187500.00, 144969.70, -50269.99, 0.00, 0.00, 0.00
174, -82911.20, -111988.30, -22777.75, -95616.11, -97652.69, 187500.00, 139785.91, -55482.32, 0.00, 0.00, 0.00
175, -79311.41, -100508.77, 1456.62, -74343.29, -89584.60, 187500.00, 121212.74, -63290.77, 0.00, 0.00, 0.00
176, -73872.52, -101644.60, -7119.25, -86067.22, -86133.05, 187500.00, 115313.52, -65430.08, -0.20, 0.07, 0.99
177, -73368.01, -112290.17, -27523.91, -108378.66, -87093.84, 187500.00, 113436.41, -62794.30, 0.00, 0.00, 0.00
178, -78017.63, -112493.84, -17866.91, -103104.37, -86878.45, 187500.00, 87592.66, -62677.39, 0.00, 0.00, 0.00
179, -84548.35, -101241.66, 8091.73, -83325.49, -86580.28, 187500.00, 46453.96, -65612.96, 0.00, 0.00, 0.00
180, -83310.07, -94035.77, 8137.51, -85759.26, -85888.19, 187500.00, 15481.11, -65992.45, 0.00, 0.00, 0.00
181, -70803.41, -97382.01, -12221.38, -104164.96, -80913.36, 187500.00, -6855.15, -61945.24, 0.00, 0.00, 0.00
182, -73351.98, -102153.81, -14030.12, -107154.84, -80548.38, 187500.00, -29350.77, -58823.57, 0.00, 0.00, 0.00
183, -88470.02, -103622.48, 3952.97, -94028.51, -84537.89, 187500.00, -46626.59, -59584.86, 0.00, 0.00, 0.00
184, -94276.68, -101842.95, 5582.66, -92223.49, -82133.36, 187500.00, -54483.79, -60279.95, 0.00, 0.00, 0.00
185, -92525.06, -101018.19, -10504.45, -102714.91, -86637.80, 187500.00, -61222.01, -55321.86, 0.00, 0.00, 0.00
186, -97186.88, -103368.77, -18286.03, -107915.31, -96499.77, 187500.00, -69025.56, -48875.89, -0.20, 0.03, 1.01
187, -100748.20, -104294.78, -10025.07, -102670.52, -95242.99, 187500.00, -72509.30, -48303.73, 0.00, 0.00, 0.00
188, -93254.72, -102322.33, -8621.92, -99427.13, -92414.60, 187500.00, -70248.22, -50769.84, 0.00, 0.00, 0.00
189, -82960.71, -101815.59, -21351.53, -104093.75, -99940.52, 187500.00, -69185.22, -48094.70, 0.00, 0.00, 0.00
190, -74664.37, -105393.12, -34152.70, -110750.74, -107637.02, 187500.00, -72273.36, -42761.77, 0.00, 0.00, 0.00
191, -63583.98, -107863.16, -36530.28, -112258.15, -105902.61, 187500.00, -73284.69, -45145.07, 0.00, 0.00, 0.00
192, -62546.10, -108888.09, -38481.81, -112721.01, -103305.49, 187500.00, -69823.85, -53838.58, 0.00, 0.00, 0.00
193, -61874.52, -109795.61, -45718.35, -116423.84, -104038.90, 187500.00, -67333.82, -54890.23, 0.00, 0.00, 0.00
194, -64902.24, -114278.12, -54018.42, -122567.51, -100048.57, 187500.00, -68688.74, -49851.45, 0.00, 0.00, 0.00
195, -75882.85, -117451.98, -56360.28, -124686.23, -92679.18, 187500.00, -68000.82, -53258.66, 0.00, 0.00, 0.00
196, -84265.49, -114853.77, -53799.26, -122189.65, -85882.62, 187500.00, -61839.14, -63363.59, -0.18, 0.01, 1.02
197, -84107.00, -112276.70, -53448.07, -121289.44, -78269.91, 187500.00, -58610.18, -63598.33, 0.00, 0.00, 0.00
198, -84370.23, -114366.38, -53373.64, -124273.66, -74799.04, 187500.00, -59949.84, -56096.62, 0.00, 0.00, 0.00
199, -91209.42, -116222.59, -45913.01, -125701.83, -82171.60, 187500.00, -56456.93, -59700.77, 0.00, 0.00, 0.00
200, -96996.06, -114146.87, -38325.42, -123611.71, -90912.12, 185645.27, -43836.89, -73893.50, 0.00, 0.00, 0.00
201, -97450.38, -114045.57, -38654.57, -122711.79, -86569.91, 163530.14, -20833.46, -78084.95, 0.00, 0.00, 0.00
202, -99245.52, -118412.36, -46673.88, -125219.88, -77643.85, 140730.27, -15700.07, -71396.30, 0.00, 0.00, 0.00
203, -111282.65, -126162.54, -55505.01, -131189.84, -86727.65, 100592.63, -31048.29, -76771.84, 0.00, 0.00, 0.00
204, -124791.57, -132603.53, -60517.32, -136878.97, -108310.45, 52295.95, -43191.23, -96412.23, 0.00, 0.00, 0.00
205, -125191.60, -132732.45, -60287.73, -135619.63, -112127.14, 22509.37, -44914.73, -104352.55, 0.00, 0.00, 0.00
206, -122532.04, -134975.66, -62857.11, -136362.42, -101905.98, 5886.91, -45619.95, -96256.17, -0.21, 0.07, 1.05
207, -123693.97, -134880.81, -61022.23, -134994.23, -100715.15, -13141.64, -43056.36, -89026.01, 0.00, 0.00, 0.00
208, -125615.23, -129373.28, -44788.02, -127321.88, -112736.20, -35681.92, -36005.73, -95655.07, 0.00, 0.00, 0.00
209, -121500.10, -125193.16, -31546.29, -119094.27, -114787.29, -46246.65, -28630.95, -102451.05, 0.00, 0.00, 0.00
210, -114095.82, -126318.42, -36526.04, -115126.97, -103310.63, -45176.94, -25951.89, -96330.85, 0.00, 0.00, 0.00
211, -112314.36, -128535.22, -40171.05, -114128.67, -98335.58, -47590.68, -26533.31, -87378.29, 0.00, 0.00, 0.00
212, -115668.58, -126730.50, -36988.71, -112385.44, -108978.41, -59656.63, -28468.01, -90235.51, 0.00, 0.00, 0.00
213, -113161.60, -123322.64, -33005.79, -107933.93, -112680.52, -64429.30, -32363.43, -95525.07, 0.00, 0.00, 0.00
214, -107930.00, -123875.11, -28808.80, -107406.16, -104378.09, -60713.15, -36719.82, -91127.74, 0.00, 0.00, 0.00
215, -106659.30, -127362.29, -27903.27, -110286.41, -99179.80, -60445.98, -39249.98, -80247.55, 0.00, 0.00, 0.00
216, -108676.01, -128792.91, -25620.84, -111073.30, -106396.67, -69205.47, -37873.29, -80123.29, -0.15, 0.04, 1.08
217, -105553.41, -127881.14, -20667.43, -109929.70, -110284.22, -74094.82, -34826.86, -89909.20, 0.00, 0.00, 0.00
218, -98546.71, -127708.07, -18468.38, -110598.15, -104918.05, -70586.27, -32298.58, -94305.56, 0.00, 0.00, 0.00
219, -93938.81, -129205.98, -20958.27, -113129.66, -99903.15, -67965.35, -27695.49, -87909.90, 0.00, 0.00, 0.00
220, -92098.51, -127453.22, -22511.58, -112516.76, -103838.60, -70797.52, -17076.82, -84965.84, 0.00, 0.00, 0.00
221, -87564.32, -123686.03, -18504.54, -110127.35, -106562.48, -68517.75, -5070.81, -91007.83, 0.00, 0.00, 0.00
222, -80418.98, -122072.15, -16402.92, -109544.82, -101811.08, -62414.27, 2689.63, -93953.72, 0.00, 0.00, 0.00
223, -75998.66, -123279.03, -17661.72, -112217.73, -96767.76, -62263.71, 8533.94, -86304.91, 0.00, 0.00, 0.00
224, -75286.22, -123591.13, -17897.64, -113478.06, -100127.81, -69240.54, 17003.49, -80927.77, 0.00, 0.00, 0.00
225, -72305.19, -120662.73, -14111.75, -111108.75, -104431.95, -75047.05, 26773.16, -86331.64, 0.00, 0.00, 0.00
226, -64983.71, -116138.38, -8722.14, -108314.27, -100506.90, -74688.80, 35272.86, -90018.92, -0.09, 0.01, 1.08
227, -59474.68, -114509.30, -6514.80, -108616.55, -94375.88, -71698.31, 39660.33, -80331.88, 0.00, 0.00, 0.00
228, -58486.94, -113931.45, -5739.55, -109356.98, -95573.87, -74082.30, 37676.48, -67058.52, 0.00, 0.00, 0.00
229, -56989.37, -111213.58, -1987.43, -107050.05, -100189.32, -76146.24, 33837.19, -65589.63, 0.00, 0.00, 0.00
230, -52142.62, -106582.81, 3775.34, -103623.00, -98149.95, -70570.52, 29331.32, -69349.73, 0.00, 0.00, 0.00
231, -48998.06, -103972.55, 6432.79, -103155.84, -92527.14, -66840.88, 23404.47, -59611.45, 0.00, 0.00, 0.00
232, -50320.44, -102517.37, 6805.10, -103987.15, -91284.68, -67951.42, 21625.45, -40916.18, 0.00, 0.00, 0.00
233, -51703.14, -99620.47, 9934.01, -102137.39, -96306.87, -71569.63, 24037.09, -36718.68, 0.00, 0.00, 0.00
234, -48964.56, -96437.36, 13441.06, -98955.57, -96443.26, -70736.59, 22697.66, -45030.74, 0.00, 0.00, 0.00
235, -47224.79, -95810.44, 12308.39, -98441.26, -91952.15, -67796.77, 17250.47, -42439.77, 0.00, 0.00, 0.00
236, -50527.28, -97876.77, 12502.11, -100434.99, -89294.91, -66805.05, 11981.41, -26153.08, -0.05, 0.03, 1.02
237, -54684.28, -99130.20, 13535.59, -100475.38, -95233.07, -70433.63, 11951.77, -20954.07, 0.00, 0.00, 0.00
238, -50827.22, -98834.85, 18749.49, -98270.76, -96349.91, -69742.13, 11489.44, -31938.59, 0.00, 0.00, 0.00
239, -43379.19, -99712.24, 24166.44, -97543.23, -92268.22, -66253.12, 9326.91, -33513.00, 0.00, 0.00, 0.00
240, -37880.75, -102807.65, 22842.72, -99797.00, -87124.84, -63610.85, 10006.61, -14439.16, 0.00, 0.00, 0.00
241, -40474.94, -103652.84, 20537.83, -100883.70, -92056.70, -67502.38, 19320.69, -2905.53, 0.00, 0.00, 0.00
242, -38326.78, -100467.66, 19808.47, -99172.81, -94221.80, -68121.72, 26255.63, -14753.42, 0.00, 0.00, 0.00
243, -32207.39, -97757.72, 20435.42, -97651.17, -90808.79, -65401.58, 30167.23, -22638.34, 0.00, 0.00, 0.00
244, -24832.65, -99112.19, 20361.81, -98963.73, -83944.66, -62201.82, 31063.83, -5514.06, 0.00, 0.00, 0.00
245, -25432.75, -101335.95, 19965.85, -99495.93, -87838.93, -66354.66, 41899.77, 9722.87, 0.00, 0.00, 0.00
246, -24606.12, -99666.18, 24607.84, -97658.88, -92343.16, -69284.52, 43148.27, -491.02, -0.09, 0.05, 1.01
247, -19565.96, -97194.39, 27753.78, -95504.66, -89514.20, -66620.84, 43364.86, -14021.29, 0.00, 0.00, 0.00
248, -14785.81, -97595.05, 25333.55, -95922.38, -81825.84, -61746.22, 53557.75, -2220.44, 0.00, 0.00, 0.00
249, -19650.67, -98791.94, 22022.23, -96651.42, -84630.56, -64691.69, 53832.66, 15085.77, 0.00, 0.00, 0.00
250, -25972.77, -96565.77, 22854.35, -95869.49, -92771.74, -70022.52, 45348.80, 7671.21, 0.00, 0.00, 0.00
251, -24166.13, -93654.70, 25831.82, -94177.26, -91985.02, -68397.88, 35933.09, -9608.34, 0.00, 0.00, 0.00
252, -19329.14, -94544.68, 27592.65, -94942.97, -85258.24, -63737.90, 26667.11, -3969.42, 0.00, 0.00, 0.00
253, -19761.20, -96796.51, 27769.16, -96102.40, -84394.80, -64541.09, 27574.94, 13959.60, 0.00, 0.00, 0.00
254, -25401.48, -96666.13, 29032.41, -95298.72, -93439.54, -71460.23, 33910.86, 10547.25, 0.00, 0.00, 0.00
255, -24062.35, -94633.84, 31105.09, -93638.74, -94241.68, -71499.30, 31485.52, -8770.02, 0.00, 0.00, 0.00
0, -20968.77, -96050.80, 28569.71, -95854.58, -88569.86, -68214.46, 22458.79, -9127.67, -0.04, 0.06, 1.04
1, -22198.12, -99743.36, 23616.32, -99493.98, -85581.45, -68054.80, 20498.65, 6386.92, 0.00, 0.00, 0.00
2, -29439.77, -100871.99, 20981.98, -99139.70, -95341.01, -75856.19, 30264.08, 5958.93, 0.00, 0.00, 0.00
3, -30328.21, -99284.59, 23216.80, -97206.37, -97693.95, -77070.98, 31693.68, -14013.47, 0.00, 0.00, 0.00
4, -27525.46, -99375.79, 28338.23, -97915.77, -91090.77, -72402.59, 26339.05, -18312.98, 0.00, 0.00, 0.00
5, -27607.02, -102421.52, 28279.05, -101767.60, -84755.42, -69319.89, 23631.83, -2228.98, 0.00, 0.00, 0.00
6, -36398.41, -104874.00, 29225.44, -103505.27, -94007.12, -77528.07, 32876.31, 2436.41, 0.00, 0.00, 0.00
7, -40078.26, -104709.65, 31719.38, -102501.45, -99601.70, -80962.20, 35598.77, -16633.86, 0.00, 0.00, 0.00
8, -38256.04, -106293.74, 28181.26, -103606.12, -95145.72, -77624.74, 28274.29, -26083.28, 0.00, 0.00, 0.00
9, -38460.33, -113076.11, 19779.86, -110880.49, -88789.33, -75046.12, 17139.70, -12921.70, 0.00, 0.00, 0.00
10, -48669.11, -119494.91, 11078.84, -118010.77, -98979.13, -85270.36, 18961.05, -5018.32, -0.01, 0.04, 1.04
11, -56779.42, -123543.07, 5349.17, -121805.78, -109775.60, -94943.97, 16694.79, -25974.94, 0.00, 0.00, 0.00
12, -56421.86, -127939.16, -2846.18, -125843.67, -107585.89, -94971.11, 5798.18, -45680.48, 0.00, 0.00, 0.00
13, -54507.14, -134497.64, -15614.28, -132943.80, -100420.28, -92652.80, -5642.61, -37436.73, 0.00, 0.00, 0.00
