%OpenBCI Raw EEG Data
%
%Sample Rate = 250.0 Hz
%First Column = SampleIndex
%Other Columns = EEG data in microvolts followed by Accel Data (in G) interleaved with Aux Data
0, -187500.02, -187500.02, -187500.02, -187500.02, -187500.02, 128222.59, 128121.06, 128214.16, 0.06, 0.00, 0.00
1, -187500.02, -187500.02, -187500.02, -187500.02, -187500.02, 128202.96, 128101.55, 128194.58, 0.06, 0.00, 0.00
2, -187500.02, -187500.02, -187500.02, -187500.02, -187500.02, 128226.55, 128125.13, 128218.05, 0.06, 0.00, 0.00
3, -187500.02, -187500.02, -187500.02, -187500.02, -187500.02, 128231.71, 128130.34, 128223.21, 0.06, 0.00, 0.00
4, -187500.02, -187500.02, -187500.02, -187500.02, -187500.02, 128189.66, 128088.26, 128181.17, 0.06, 0.00, 0.00
5, -187500.02, -187500.02, -187500.02, -187500.02, -187500.02, 128167.11, 128065.73, 128158.64, 0.06, 0.00, 0.00
6, -187500.02, -187500.02, -187500.02, -187500.02, -187500.02, 128188.88, 128087.52, 128180.34, 0.06, 0.00, 0.00
7, -187500.02, -187500.02, -187500.02, -187500.02, -187500.02, 128199.19, 128097.93, 128190.78, 0.06, 0.00, 0.00
8, -187500.02, -187500.02, -187500.02, -187500.02, -187500.02, 128159.55, 128058.26, 128151.11, 0.06, 0.00, 0.00
9, -187500.02, -187500.02, -187500.02, -187500.02, -187500.02, 128122.41, 128021.13, 128113.91, 0.06, 0.00, 0.00
10, -187500.02, -187500.02, -187500.02, -187500.02, -187500.02, 128133.90, 128032.66, 128125.38, 0.06, 0.00, 0.00
11, -187500.02, -187500.02, -187500.02, -187500.02, -187500.02, 128152.91, 128051.58, 128144.40, 0.06, 0.00, 0.00
12, -187500.02, -187500.02, -187500.02, -187500.02, -187500.02, 128126.59, 128025.18, 128118.05, 0.06, 0.00, 0.00
13, -187500.02, -187500.02, -187500.02, -187500.02, -187500.02, 128082.38, 127980.97, 128073.77, 0.06, 0.00, 0.00
14, -187500.02, -187500.02, -187500.02, -187500.02, -187500.02, 128087.67, 127986.20, 128079.09, 0.06, 0.00, 0.00
15, -187500.02, -187500.02, -187500.02, -187500.02, -187500.02, 128112.44, 128010.90, 128103.86, 0.06, 0.00, 0.00
16, -187500.02, -187500.02, -187500.02, -187500.02, -187500.02, 128095.52, 127994.09, 128087.02, 0.06, 0.00, 0.00
17, -187500.02, -187500.02, -187500.02, -187500.02, -187500.02, 128051.84, 127950.41, 128043.44, 0.06, 0.00, 0.00
18, -187500.02, -187500.02, -187500.02, -187500.02, -187500.02, 128046.50, 127945.13, 128037.98, 0.06, 0.00, 0.00
19, -187500.02, -187500.02, -187500.02, -187500.02, -187500.02, 128069.10, 127967.71, 128060.59, 0.06, 0.00, 0.00
20, -187500.02, -187500.02, -187500.02, -187500.02, -187500.02, 128062.55, 127961.09, 128054.01, 0.06, 0.00, 0.00
21, -187500.02, -187500.02, -187500.02, -187500.02, -187500.02, 128018.92, 127917.46, 128010.31, 0.06, 0.00, 0.00
22, -187500.02, -187500.02, -187500.02, -187500.02, -187500.02, 128004.48, 127903.00, 127995.85, 0.06, 0.00, 0.00
23, -187500.02, -187500.02, -187500.02, -187500.02, -187500.02, 128030.07, 127928.55, 128021.51, 0.06, 0.00, 0.00
24, -187500.02, -187500.02, -187500.02, -187500.02, -187500.02, 128030.38, 127929.00, 128021.91, 0.06, 0.00, 0.00
25, -187500.02, -187500.02, -187500.02, -187500.02, -187500.02, 127985.48, 127884.23, 127977.03, 0.06, 0.00, 0.00
26, -187500.02, -187500.02, -187500.02, -187500.02, -187500.02, 127962.93, 127861.56, 127954.45, 0.06, 0.00, 0.00
27, -187500.02, -187500.02, -187500.02, -187500.02, -187500.02, 127984.72, 127883.22, 127976.18, 0.06, 0.00, 0.00
28, -187500.02, -187500.02, -187500.02, -187500.02, -187500.02, 127991.80, 127890.40, 127983.31, 0.06, 0.00, 0.00
29, -187500.02, -187500.02, -187500.02, -187500.02, -187500.02, 127951.06, 127849.65, 127942.54, 0.06, 0.00, 0.00
30, -187500.02, -187500.02, -187500.02, -187500.02, -187500.02, 127920.10, 127818.67, 127911.52, 0.06, 0.00, 0.00
31, -187500.02, -187500.02, -187500.02, -187500.02, -187500.02, 127941.23, 127839.88, 127932.69, 0.06, 0.00, 0.00
32, -187500.02, -187500.02, -187500.02, -187500.02, -187500.02, 127957.38, 127856.00, 127948.82, 0.06, 0.00, 0.00
33, -187500.02, -187500.02, -187500.02, -187500.02, -187500.02, 127923.73, 127822.24, 127915.09, 0.06, 0.00, 0.00
34, -187500.02, -187500.02, -187500.02, -187500.02, -187500.02, 127885.32, 127783.80, 127876.67, 0.06, 0.00, 0.00
35, -187500.02, -187500.02, -187500.02, -187500.02, -187500.02, 127893.86, 127792.41, 127885.30, 0.06, 0.00, 0.00
36, -187500.02, -187500.02, -187500.02, -187500.02, -187500.02, 127913.06, 127811.70, 127904.52, 0.06, 0.00, 0.00
37, -187500.02, -187500.02, -187500.02, -187500.02, -187500.02, 127891.47, 127790.26, 127882.88, 0.06, 0.00, 0.00
38, -187500.02, -187500.02, -187500.02, -187500.02, -187500.02, 127851.05, 127749.73, 127842.38, 0.06, 0.00, 0.00
39, -187500.02, -187500.02, -187500.02, -187500.02, -187500.02, 127851.73, 127750.38, 127843.15, 0.06, 0.00, 0.00
40, -187500.02, -187500.02, -187500.02, -187500.02, -187500.02, 127875.58, 127774.30, 127867.20, 0.06, 0.00, 0.00
41, -187500.02, -187500.02, -187500.02, -187500.02, -187500.02, 127859.44, 127758.16, 127850.90, 0.06, 0.00, 0.00
42, -187500.02, -187500.02, -187500.02, -187500.02, -187500.02, 127812.99, 127711.59, 127804.41, 0.06, 0.00, 0.00
43, -187500.02, -187500.02, -187500.02, -187500.02, -187500.02, 127807.56, 127706.20, 127799.00, 0.06, 0.00, 0.00
44, -187500.02, -187500.02, -187500.02, -187500.02, -187500.02, 127833.55, 127732.23, 127825.02, 0.06, 0.00, 0.00
45, -187500.02, -187500.02, -187500.02, -187500.02, -187500.02, 127827.12, 127725.75, 127818.55, 0.06, 0.00, 0.00
46, -187500.02, -187500.02, -187500.02, -187500.02, -187500.02, 127779.58, 127678.21, 127771.02, 0.06, 0.00, 0.00
47, -187500.02, -187500.02, -187500.02, -187500.02, -187500.02, 127763.53, 127662.23, 127755.05, 0.06, 0.00, 0.00
48, -187500.02, -187500.02, -187500.02, -187500.02, -187500.02, 127790.04, 127688.74, 127781.50, 0.06, 0.00, 0.00
49, -187500.02, -187500.02, -187500.02, -187500.02, -187500.02, 127794.66, 127693.41, 127786.17, 0.06, 0.00, 0.00
50, -187500.02, -187500.02, -187500.02, -187500.02, -187500.02, 127750.25, 127649.02, 127741.84, 0.06, 0.00, 0.00
51, -187500.02, -187500.02, -187500.02, -187500.02, -187500.02, 127723.23, 127621.93, 127714.69, 0.06, 0.00, 0.00
52, -187500.02, -187500.02, -187500.02, -187500.02, -187500.02, 127742.54, 127641.29, 127734.05, 0.06, 0.00, 0.00
53, -187500.02, -187500.02, -187500.02, -187500.02, -187500.02, 127756.27, 127655.03, 127747.73, 0.06, 0.00, 0.00
54, -187500.02, -187500.02, -187500.02, -187500.02, -187500.02, 127718.00, 127616.72, 127709.50, 0.06, 0.00, 0.00
55, -187500.02, -187500.02, -187500.02, -187500.02, -187500.02, 127684.31, 127583.04, 127675.80, 0.06, 0.00, 0.00
56, -187500.02, -187500.02, -187500.02, -187500.02, -187500.02, 127698.88, 127597.74, 127690.35, 0.06, 0.00, 0.00
57, -187500.02, -187500.02, -187500.02, -187500.02, -187500.02, 127717.66, 127616.56, 127709.19, 0.06, 0.00, 0.00
58, -187500.02, -187500.02, -187500.02, -187500.02, -187500.02, 127690.39, 127589.19, 127681.90, 0.06, 0.00, 0.00
59, -187500.02, -187500.02, -187500.02, -187500.02, -187500.02, 127648.87, 127547.61, 127640.30, 0.06, 0.00, 0.00
60, -187500.02, -187500.02, -187500.02, -187500.02, -187500.02, 127652.53, 127551.30, 127643.99, 0.06, 0.00, 0.00
61, -187500.02, -187500.02, -187500.02, -187500.02, -187500.02, 127673.85, 127572.64, 127665.36, 0.06, 0.00, 0.00
62, -187500.02, -187500.02, -187500.02, -187500.02, -187500.02, 127652.80, 127551.63, 127644.33, 0.06, 0.00, 0.00
63, -187500.02, -187500.02, -187500.02, -187500.02, -187500.02, 127606.98, 127505.73, 127598.46, 0.06, 0.00, 0.00
64, -187500.02, -187500.02, -187500.02, -187500.02, -187500.02, 127606.71, 127505.48, 127598.26, 0.06, 0.00, 0.00
65, -187500.02, -187500.02, -187500.02, -187500.02, -187500.02, 127632.23, 127531.14, 127623.83, 0.06, 0.00, 0.00
66, -187500.02, -187500.02, -187500.02, -187500.02, -187500.02, 127621.52, 127520.36, 127612.90, 0.06, 0.00, 0.00
67, -187500.02, -187500.02, -187500.02, -187500.02, -187500.02, 127576.45, 127475.26, 127567.86, 0.06, 0.00, 0.00
68, -187500.02, -187500.02, -187500.02, -187500.02, -187500.02, 127565.23, 127464.06, 127556.73, 0.06, 0.00, 0.00
69, -187500.02, -187500.02, -187500.02, -187500.02, -187500.02, 127588.91, 127487.69, 127580.35, 0.06, 0.00, 0.00
70, -187500.02, -187500.02, -187500.02, -187500.02, -187500.02, 127586.03, 127484.82, 127577.45, 0.06, 0.00, 0.00
71, -187500.02, -187500.02, -187500.02, -187500.02, -187500.02, 127540.03, 127438.87, 127531.52, 0.06, 0.00, 0.00
72, -187500.02, -187500.02, -187500.02, -187500.02, -187500.02, 127521.37, 127420.27, 127512.90, 0.06, 0.00, 0.00
73, -187500.02, -187500.02, -187500.02, -187500.02, -187500.02, 127545.62, 127444.50, 127537.09, 0.06, 0.00, 0.00
74, -187500.02, -187500.02, -187500.02, -187500.02, -187500.02, 127552.20, 127451.03, 127543.59, 0.06, 0.00, 0.00
75, -187500.02, -187500.02, -187500.02, -187500.02, -187500.02, 127512.07, 127410.82, 127503.48, 0.06, 0.00, 0.00
76, -187500.02, -187500.02, -187500.02, -187500.02, -187500.02, 127481.20, 127379.97, 127472.58, 0.06, 0.00, 0.00
77, -187500.02, -187500.02, -187500.02, -187500.02, -187500.02, 127498.68, 127397.41, 127490.13, 0.06, 0.00, 0.00
78, -187500.02, -187500.02, -187500.02, -187500.02, -187500.02, 127512.98, 127411.71, 127504.49, 0.06, 0.00, 0.00
79, -187500.02, -187500.02, -187500.02, -187500.02, -187500.02, 127481.02, 127379.95, 127472.62, 0.06, 0.00, 0.00
80, -187500.02, -187500.02, -187500.02, -187500.02, -187500.02, 127445.06, 127343.94, 127436.61, 0.06, 0.00, 0.00
81, -187500.02, -187500.02, -187500.02, -187500.02, -187500.02, 127459.74, 127358.58, 127451.23, 0.06, 0.00, 0.00
82, -187500.02, -187500.02, -187500.02, -187500.02, -187500.02, 127480.11, 127378.92, 127471.62, 0.06, 0.00, 0.00
83, -187500.02, -187500.02, -187500.02, -187500.02, -187500.02, 127452.66, 127351.45, 127444.13, 0.06, 0.00, 0.00
84, -187500.02, -187500.02, -187500.02, -187500.02, -187500.02, 127411.00, 127309.74, 127402.48, 0.06, 0.00, 0.00
85, -187500.02, -187500.02, -187500.02, -187500.02, -187500.02, 127417.14, 127316.05, 127408.72, 0.06, 0.00, 0.00
86, -187500.02, -187500.02, -187500.02, -187500.02, -187500.02, 127439.41, 127338.27, 127430.84, 0.06, 0.00, 0.00
87, -187500.02, -187500.02, -187500.02, -187500.02, -187500.02, 127419.27, 127318.13, 127410.77, 0.06, 0.00, 0.00
88, -187500.02, -187500.02, -187500.02, -187500.02, -187500.02, 127377.42, 127276.28, 127368.95, 0.06, 0.00, 0.00
89, -187500.02, -187500.02, -187500.02, -187500.02, -187500.02, 127370.72, 127269.58, 127362.20, 0.06, 0.00, 0.00
90, -187500.02, -187500.02, -187500.02, -187500.02, -187500.02, 127395.28, 127294.07, 127386.72, 0.06, 0.00, 0.00
91, -187500.02, -187500.02, -187500.02, -187500.02, -187500.02, 127388.16, 127287.01, 127379.63, 0.06, 0.00, 0.00
92, -187500.02, -187500.02, -187500.02, -187500.02, -187500.02, 127339.02, 127237.88, 127330.48, 0.06, 0.00, 0.00
93, -187500.02, -187500.02, -187500.02, -187500.02, -187500.02, 127321.74, 127220.60, 127313.21, 0.07, 0.00, 0.00
94, -187500.02, -187500.02, -187500.02, -187500.02, -187500.02, 127348.68, 127247.56, 127340.07, 0.07, 0.00, 0.00
95, -187500.02, -187500.02, -187500.02, -187500.02, -187500.02, 127351.72, 127250.55, 127343.05, 0.07, 0.00, 0.00
96, -187500.02, -187500.02, -187500.02, -187500.02, -187500.02, 127307.15, 127206.08, 127298.59, 0.07, 0.00, 0.00
97, -187500.02, -187500.02, -187500.02, -187500.02, -187500.02, 127281.98, 127180.93, 127273.42, 0.07, 0.00, 0.00
98, -187500.02, -187500.02, -187500.02, -187500.02, -187500.02, 127305.05, 127203.93, 127296.51, 0.07, 0.00, 0.00
99, -187500.02, -187500.02, -187500.02, -187500.02, -187500.02, 127312.31, 127211.17, 127303.82, 0.07, 0.00, 0.00
100, -187500.02, -187500.02, -187500.02, -187500.02, -187500.02, 127274.02, 127172.84, 127265.46, 0.07, 0.00, 0.00
101, -187500.02, -187500.02, -187500.02, -187500.02, -187500.02, 127245.88, 127144.74, 127237.30, 0.07, 0.00, 0.00
102, -187500.02, -187500.02, -187500.02, -187500.02, -187500.02, 127263.43, 127162.34, 127254.89, 0.07, 0.00, 0.00
103, -187500.02, -187500.02, -187500.02, -187500.02, -187500.02, 127279.27, 127178.20, 127270.80, 0.07, 0.00, 0.00
104, -187500.02, -187500.02, -187500.02, -187500.02, -187500.02, 127247.91, 127146.64, 127239.34, 0.07, 0.00, 0.00
105, -187500.02, -187500.02, -187500.02, -187500.02, -187500.02, 127207.84, 127106.66, 127199.21, 0.07, 0.00, 0.00
106, -187500.02, -187500.02, -187500.02, -187500.02, -187500.02, 127216.83, 127115.84, 127208.38, 0.07, 0.00, 0.00
107, -187500.02, -187500.02, -187500.02, -187500.02, -187500.02, 127239.96, 127138.98, 127231.47, 0.07, 0.00, 0.00
108, -187500.02, -187500.02, -187500.02, -187500.02, -187500.02, 127216.70, 127115.57, 127208.11, 0.07, 0.00, 0.00
109, -187500.02, -187500.02, -187500.02, -187500.02, -187500.02, 127170.42, 127069.28, 127161.87, 0.07, 0.00, 0.00
110, -187500.02, -187500.02, -187500.02, -187500.02, -187500.02, 127169.46, 127068.32, 127160.92, 0.07, 0.00, 0.00
111, -187500.02, -187500.02, -187500.02, -187500.02, -187500.02, 127194.34, 127093.16, 127185.69, 0.07, 0.00, 0.00
112, -187500.02, -187500.02, -187500.02, -187500.02, -187500.02, 127179.55, 127078.52, 127171.01, 0.07, 0.00, 0.00
113, -187500.02, -187500.02, -187500.02, -187500.02, -187500.02, 127134.95, 127033.90, 127126.46, 0.07, 0.00, 0.00
114, -187500.02, -187500.02, -187500.02, -187500.02, -187500.02, 127127.46, 127026.32, 127118.97, 0.07, 0.00, 0.00
115, -187500.02, -187500.02, -187500.02, -187500.02, -187500.02, 127152.19, 127051.06, 127143.67, 0.07, 0.00, 0.00
116, -187500.02, -187500.02, -187500.02, -187500.02, -187500.02, 127145.41, 127044.27, 127136.85, 0.07, 0.00, 0.00
117, -187500.02, -187500.02, -187500.02, -187500.02, -187500.02, 127100.09, 126999.05, 127091.59, 0.07, 0.00, 0.00
118, -187500.02, -187500.02, -187500.02, -187500.02, -187500.02, 127083.14, 126982.18, 127074.65, 0.07, 0.00, 0.00
119, -187500.02, -187500.02, -187500.02, -187500.02, -187500.02, 127106.63, 127005.63, 127098.12, 0.07, 0.00, 0.00
120, -187500.02, -187500.02, -187500.02, -187500.02, -187500.02, 127109.88, 127008.91, 127101.36, 0.07, 0.00, 0.00
121, -187500.02, -187500.02, -187500.02, -187500.02, -187500.02, 127067.25, 126966.35, 127058.82, 0.07, 0.00, 0.00
122, -187500.02, -187500.02, -187500.02, -187500.02, -187500.02, 127040.56, 126939.55, 127032.11, 0.07, 0.00, 0.00
123, -187500.02, -187500.02, -187500.02, -187500.02, -187500.02, 127059.34, 126958.28, 127050.80, 0.07, 0.00, 0.00
124, -187500.02, -187500.02, -187500.02, -187500.02, -187500.02, 127071.18, 126970.17, 127062.63, 0.07, 0.00, 0.00
125, -187500.02, -187500.02, -187500.02, -187500.02, -187500.02, 127035.66, 126934.68, 127027.15, 0.07, 0.00, 0.00
126, -187500.02, -187500.02, -187500.02, -187500.02, -187500.02, 127000.66, 126899.70, 126992.08, 0.07, 0.00, 0.00
127, -187500.02, -187500.02, -187500.02, -187500.02, -187500.02, 127015.88, 126914.85, 127007.21, 0.07, 0.00, 0.00
128, -187500.02, -187500.02, -187500.02, -187500.02, -187500.02, 127035.73, 126934.84, 127027.15, 0.07, 0.00, 0.00
129, -187500.02, -187500.02, -187500.02, -187500.02, -187500.02, 127009.41, 126908.44, 127000.82, 0.07, 0.00, 0.00
130, -187500.02, -187500.02, -187500.02, -187500.02, -187500.02, 126969.66, 126868.68, 126960.99, 0.07, 0.00, 0.00
131, -187500.02, -187500.02, -187500.02, -187500.02, -187500.02, 126976.19, 126875.23, 126967.60, 0.07, 0.00, 0.00
132, -187500.02, -187500.02, -187500.02, -187500.02, -187500.02, 127001.91, 126900.93, 126993.35, 0.07, 0.00, 0.00
133, -187500.02, -187500.02, -187500.02, -187500.02, -187500.02, 126979.97, 126878.98, 126971.31, 0.07, 0.00, 0.00
134, -187500.02, -187500.02, -187500.02, -187500.02, -187500.02, 126934.16, 126833.13, 126925.45, 0.07, 0.00, 0.00
135, -187500.02, -187500.02, -187500.02, -187500.02, -187500.02, 126933.45, 126832.38, 126924.73, 0.07, 0.00, 0.00
136, -187500.02, -187500.02, -187500.02, -187500.02, -187500.02, 126959.09, 126858.17, 126950.55, 0.07, 0.00, 0.00
137, -187500.02, -187500.02, -187500.02, -187500.02, -187500.02, 126949.92, 126849.01, 126941.37, 0.07, 0.00, 0.00
138, -187500.02, -187500.02, -187500.02, -187500.02, -187500.02, 126899.41, 126798.47, 126890.83, 0.07, 0.00, 0.00
139, -187500.02, -187500.02, -187500.02, -187500.02, -187500.02, 126885.28, 126784.30, 126876.68, 0.07, 0.00, 0.00
140, -187500.02, -187500.02, -187500.02, -187500.02, -187500.02, 126910.09, 126809.13, 126901.45, 0.07, 0.00, 0.00
141, -187500.02, -187500.02, -187500.02, -187500.02, -187500.02, 126910.30, 126809.29, 126901.60, 0.07, 0.00, 0.00
142, -187500.02, -187500.02, -187500.02, -187500.02, -187500.02, 126865.14, 126764.18, 126856.45, 0.07, 0.00, 0.00
143, -187500.02, -187500.02, -187500.02, -187500.02, -187500.02, 126843.48, 126742.34, 126834.74, 0.07, 0.00, 0.00
144, -187500.02, -187500.02, -187500.02, -187500.02, -187500.02, 126866.20, 126765.19, 126857.57, 0.07, 0.00, 0.00
145, -187500.02, -187500.02, -187500.02, -187500.02, -187500.02, 126873.77, 126772.74, 126865.21, 0.06, 0.00, 0.00
146, -187500.02, -187500.02, -187500.02, -187500.02, -187500.02, 126832.87, 126731.80, 126824.29, 0.07, 0.00, 0.00
147, -187500.02, -187500.02, -187500.02, -187500.02, -187500.02, 126801.30, 126700.28, 126792.75, 0.06, 0.00, 0.00
148, -187500.02, -187500.02, -187500.02, -187500.02, -187500.02, 126821.24, 126720.26, 126812.70, 0.06, 0.00, 0.00
149, -187500.02, -187500.02, -187500.02, -187500.02, -187500.02, 126837.27, 126736.31, 126828.71, 0.06, 0.00, 0.00
150, -187500.02, -187500.02, -187500.02, -187500.02, -187500.02, 126802.91, 126701.95, 126794.47, 0.06, 0.00, 0.00
151, -187500.02, -187500.02, -187500.02, -187500.02, -187500.02, 126767.24, 126666.28, 126758.68, 0.06, 0.00, 0.00
152, -187500.02, -187500.02, -187500.02, -187500.02, -187500.02, 126779.63, 126678.69, 126771.13, 0.06, 0.00, 0.00
153, -187500.02, -187500.02, -187500.02, -187500.02, -187500.02, 126797.04, 126696.21, 126788.55, 0.06, 0.00, 0.00
154, -187500.02, -187500.02, -187500.02, -187500.02, -187500.02, 126772.38, 126671.55, 126763.87, 0.06, 0.00, 0.00
155, -187500.02, -187500.02, -187500.02, -187500.02, -187500.02, 126734.30, 126633.42, 126725.85, 0.06, 0.00, 0.00
156, -187500.02, -187500.02, -187500.02, -187500.02, -187500.02, 126738.16, 126637.29, 126729.67, 0.06, 0.00, 0.00
157, -187500.02, -187500.02, -187500.02, -187500.02, -187500.02, 126761.52, 126660.58, 126752.91, 0.06, 0.00, 0.00
158, -187500.02, -187500.02, -187500.02, -187500.02, -187500.02, 126744.94, 126643.98, 126736.38, 0.06, 0.00, 0.00
159, -187500.02, -187500.02, -187500.02, -187500.02, -187500.02, 126698.18, 126597.21, 126689.59, 0.06, 0.00, 0.00
160, -187500.02, -187500.02, -187500.02, -187500.02, -187500.02, 126690.78, 126589.95, 126682.24, 0.06, 0.00, 0.00
161, -187500.02, -187500.02, -187500.02, -187500.02, -187500.02, 126714.47, 126613.53, 126705.91, 0.06, 0.00, 0.00
162, -187500.02, -187500.02, -187500.02, -187500.02, -187500.02, 126705.13, 126604.37, 126696.59, 0.06, 0.00, 0.00
163, -187500.02, -187500.02, -187500.02, -187500.02, -187500.02, 126659.62, 126558.86, 126651.10, 0.06, 0.00, 0.00
164, -187500.02, -187500.02, -187500.02, -187500.02, -187500.02, 126645.07, 126544.24, 126636.55, 0.06, 0.00, 0.00
165, -187500.02, -187500.02, -187500.02, -187500.02, -187500.02, 126668.49, 126567.71, 126659.95, 0.06, 0.00, 0.00
166, -187500.02, -187500.02, -187500.02, -187500.02, -187500.02, 126671.18, 126570.28, 126662.50, 0.06, 0.00, 0.00
167, -187500.02, -187500.02, -187500.02, -187500.02, -187500.02, 126629.02, 126528.10, 126620.30, 0.06, 0.00, 0.00
168, -187500.02, -187500.02, -187500.02, -187500.02, -187500.02, 126605.77, 126504.90, 126597.10, 0.06, 0.00, 0.00
169, -187500.02, -187500.02, -187500.02, -187500.02, -187500.02, 126626.20, 126525.46, 126617.62, 0.06, 0.00, 0.00
170, -187500.02, -187500.02, -187500.02, -187500.02, -187500.02, 126635.32, 126534.49, 126626.67, 0.06, 0.00, 0.00
171, -187500.02, -187500.02, -187500.02, -187500.02, -187500.02, 126596.66, 126495.83, 126588.05, 0.06, 0.00, 0.00
172, -187500.02, -187500.02, -187500.02, -187500.02, -187500.02, 126565.32, 126464.47, 126556.71, 0.06, 0.00, 0.00
173, -187500.02, -187500.02, -187500.02, -187500.02, -187500.02, 126581.81, 126480.94, 126573.32, 0.06, 0.00, 0.00
174, -187500.02, -187500.02, -187500.02, -187500.02, -187500.02, 126598.02, 126497.26, 126589.48, 0.06, 0.00, 0.00
175, -187500.02, -187500.02, -187500.02, -187500.02, -187500.02, 126567.77, 126467.02, 126559.17, 0.06, 0.00, 0.00
176, -187500.02, -187500.02, -187500.02, -187500.02, -187500.02, 126528.51, 126427.66, 126519.88, 0.06, 0.00, 0.00
177, -187500.02, -187500.02, -187500.02, -187500.02, -187500.02, 126538.98, 126438.18, 126530.43, 0.06, 0.00, 0.00
178, -187500.02, -187500.02, -187500.02, -187500.02, -187500.02, 126562.19, 126461.45, 126553.65, 0.06, 0.00, 0.00
179, -187500.02, -187500.02, -187500.02, -187500.02, -187500.02, 126538.09, 126437.27, 126529.48, 0.06, 0.00, 0.00
180, -187500.02, -187500.02, -187500.02, -187500.02, -187500.02, 126493.01, 126392.16, 126484.41, 0.06, 0.00, 0.00
181, -187500.02, -187500.02, -187500.02, -187500.02, -187500.02, 126493.95, 126393.23, 126485.43, 0.06, 0.00, 0.00
182, -187500.02, -187500.02, -187500.02, -187500.02, -187500.02, 126518.83, 126418.06, 126510.27, 0.06, 0.00, 0.00
183, -187500.02, -187500.02, -187500.02, -187500.02, -187500.02, 126505.77, 126404.99, 126497.21, 0.06, 0.00, 0.00
184, -187500.02, -187500.02, -187500.02, -187500.02, -187500.02, 126460.45, 126359.68, 126451.88, 0.06, 0.00, 0.00
185, -187500.02, -187500.02, -187500.02, -187500.02, -187500.02, 126453.41, 126352.69, 126444.91, 0.06, 0.00, 0.00
186, -187500.02, -187500.02, -187500.02, -187500.02, -187500.02, 126477.56, 126376.91, 126469.09, 0.06, 0.00, 0.00
187, -187500.02, -187500.02, -187500.02, -187500.02, -187500.02, 126472.00, 126371.33, 126463.53, 0.06, 0.00, 0.00
188, -187500.02, -187500.02, -187500.02, -187500.02, -187500.02, 126427.25, 126326.60, 126418.76, 0.06, 0.00, 0.00
189, -187500.02, -187500.02, -187500.02, -187500.02, -187500.02, 126406.98, 126306.30, 126398.51, 0.06, 0.00, 0.00
190, -187500.02, -187500.02, -187500.02, -187500.02, -187500.02, 126432.95, 126332.30, 126424.46, 0.06, 0.00, 0.00
191, -187500.02, -187500.02, -187500.02, -187500.02, -187500.02, 126440.44, 126339.63, 126431.88, 0.06, 0.00, 0.00
192, -187500.02, -187500.02, -187500.02, -187500.02, -187500.02, 126398.20, 126297.39, 126389.66, 0.06, 0.00, 0.00
193, -187500.02, -187500.02, -187500.02, -187500.02, -187500.02, 126370.37, 126269.56, 126361.76, 0.06, 0.00, 0.00
194, -187500.02, -187500.02, -187500.02, -187500.02, -187500.02, 126388.52, 126287.76, 126379.98, 0.06, 0.00, 0.00
195, -187500.02, -187500.02, -187500.02, -187500.02, -187500.02, 126401.99, 126301.26, 126393.50, 0.06, 0.00, 0.00
196, -187500.02, -187500.02, -187500.02, -187500.02, -187500.02, 126368.22, 126267.48, 126359.68, 0.06, 0.00, 0.00
197, -187500.02, -187500.02, -187500.02, -187500.02, -187500.02, 126331.59, 126230.87, 126322.91, 0.06, 0.00, 0.00
198, -187500.02, -187500.02, -187500.02, -187500.02, -187500.02, 126345.49, 126244.95, 126337.04, 0.06, 0.00, 0.00
199, -187500.02, -187500.02, -187500.02, -187500.02, -187500.02, 126364.87, 126264.17, 126356.40, 0.06, 0.00, 0.00
200, -187500.02, -187500.02, -187500.02, -187500.02, -187500.02, 126339.16, 126238.54, 126330.71, 0.06, 0.00, 0.00
201, -187500.02, -187500.02, -187500.02, -187500.02, -187500.02, 126296.36, 126195.76, 126287.91, 0.06, 0.00, 0.00
202, -187500.02, -187500.02, -187500.02, -187500.02, -187500.02, 126297.32, 126196.63, 126288.76, 0.06, 0.00, 0.00
203, -187500.02, -187500.02, -187500.02, -187500.02, -187500.02, 126317.70, 126217.05, 126309.23, 0.06, 0.00, 0.00
204, -187500.02, -187500.02, -187500.02, -187500.02, -187500.02, 126304.25, 126203.51, 126295.73, 0.06, 0.00, 0.00
205, -187500.02, -187500.02, -187500.02, -187500.02, -187500.02, 126261.05, 126160.35, 126252.55, 0.06, 0.00, 0.00
206, -187500.02, -187500.02, -187500.02, -187500.02, -187500.02, 126257.87, 126157.17, 126249.35, 0.06, 0.00, 0.00
207, -187500.02, -187500.02, -187500.02, -187500.02, -187500.02, 126281.00, 126180.47, 126272.64, 0.06, 0.00, 0.00
208, -187500.02, -187500.02, -187500.02, -187500.02, -187500.02, 126271.17, 126170.63, 126262.70, 0.06, 0.00, 0.00
209, -187500.02, -187500.02, -187500.02, -187500.02, -187500.02, 126222.45, 126121.88, 126214.04, 0.06, 0.00, 0.00
210, -187500.02, -187500.02, -187500.02, -187500.02, -187500.02, 126212.79, 126112.27, 126204.36, 0.06, 0.00, 0.00
211, -187500.02, -187500.02, -187500.02, -187500.02, -187500.02, 126236.37, 126135.77, 126227.85, 0.06, 0.00, 0.00
212, -187500.02, -187500.02, -187500.02, -187500.02, -187500.02, 126234.18, 126133.62, 126225.66, 0.06, 0.00, 0.00
213, -187500.02, -187500.02, -187500.02, -187500.02, -187500.02, 126191.17, 126090.52, 126182.77, 0.06, 0.00, 0.00
214, -187500.02, -187500.02, -187500.02, -187500.02, -187500.02, 126170.50, 126069.84, 126162.00, 0.06, 0.00, 0.00
215, -187500.02, -187500.02, -187500.02, -187500.02, -187500.02, 126190.77, 126090.16, 126182.21, 0.06, 0.00, 0.00
216, -187500.02, -187500.02, -187500.02, -187500.02, -187500.02, 126199.30, 126098.75, 126190.86, 0.06, 0.00, 0.00
217, -187500.02, -187500.02, -187500.02, -187500.02, -187500.02, 126159.92, 126059.43, 126151.48, 0.06, 0.00, 0.00
218, -187500.02, -187500.02, -187500.02, -187500.02, -187500.02, 126129.93, 126029.39, 126121.41, 0.06, 0.00, 0.00
219, -187500.02, -187500.02, -187500.02, -187500.02, -187500.02, 126146.67, 126046.04, 126138.09, 0.06, 0.00, 0.00
220, -187500.02, -187500.02, -187500.02, -187500.02, -187500.02, 126161.96, 126061.29, 126153.45, 0.06, 0.00, 0.00
221, -187500.02, -187500.02, -187500.02, -187500.02, -187500.02, 126129.02, 126028.38, 126120.45, 0.06, 0.00, 0.00
222, -187500.02, -187500.02, -187500.02, -187500.02, -187500.02, 126093.25, 125992.53, 126084.63, 0.06, 0.00, 0.00
223, -187500.02, -187500.02, -187500.02, -187500.02, -187500.02, 126104.38, 126003.73, 126095.77, 0.06, 0.00, 0.00
224, -187500.02, -187500.02, -187500.02, -187500.02, -187500.02, 126123.34, 126022.73, 126114.82, 0.06, 0.00, 0.00
225, -187500.02, -187500.02, -187500.02, -187500.02, -187500.02, 126099.17, 125998.66, 126090.63, 0.06, 0.00, 0.00
226, -187500.02, -187500.02, -187500.02, -187500.02, -187500.02, 126056.32, 125955.79, 126047.77, 0.06, 0.00, 0.00
227, -187500.02, -187500.02, -187500.02, -187500.02, -187500.02, 126059.72, 125959.12, 126051.14, 0.06, 0.00, 0.00
228, -187500.02, -187500.02, -187500.02, -187500.02, -187500.02, 126084.60, 125984.11, 126076.04, 0.06, 0.00, 0.00
229, -187500.02, -187500.02, -187500.02, -187500.02, -187500.02, 126069.22, 125968.57, 126060.64, 0.06, 0.00, 0.00
230, -187500.02, -187500.02, -187500.02, -187500.02, -187500.02, 126023.47, 125922.82, 126014.91, 0.06, 0.00, 0.00
231, -187500.02, -187500.02, -187500.02, -187500.02, -187500.02, 126015.95, 125915.35, 126007.38, 0.06, 0.00, 0.00
232, -187500.02, -187500.02, -187500.02, -187500.02, -187500.02, 126041.33, 125940.72, 126032.74, 0.06, 0.00, 0.00
233, -187500.02, -187500.02, -187500.02, -187500.02, -187500.02, 126035.96, 125935.31, 126027.36, 0.06, 0.00, 0.00
234, -187500.02, -187500.02, -187500.02, -187500.02, -187500.02, 125991.46, 125890.90, 125982.88, 0.06, 0.00, 0.00
235, -187500.02, -187500.02, -187500.02, -187500.02, -187500.02, 125976.53, 125875.95, 125967.92, 0.06, 0.00, 0.00
236, -187500.02, -187500.02, -187500.02, -187500.02, -187500.02, 125999.75, 125899.08, 125991.03, 0.06, 0.00, 0.00
237, -187500.02, -187500.02, -187500.02, -187500.02, -187500.02, 126000.71, 125900.09, 125991.99, 0.06, 0.00, 0.00
238, -187500.02, -187500.02, -187500.02, -187500.02, -187500.02, 125955.05, 125854.42, 125946.35, 0.06, 0.00, 0.00
239, -187500.02, -187500.02, -187500.02, -187500.02, -187500.02, 125931.04, 125830.39, 125922.48, 0.06, 0.00, 0.00
240, -187500.02, -187500.02, -187500.02, -187500.02, -187500.02, 125954.76, 125854.20, 125946.24, 0.06, 0.00, 0.00
241, -187500.02, -187500.02, -187500.02, -187500.02, -187500.02, 125965.93, 125865.38, 125957.46, 0.06, 0.00, 0.00
242, -187500.02, -187500.02, -187500.02, -187500.02, -187500.02, 125927.29, 125826.81, 125918.80, 0.06, 0.00, 0.00
243, -187500.02, -187500.02, -187500.02, -187500.02, -187500.02, 125888.73, 125788.13, 125880.05, 0.06, 0.00, 0.00
244, -187500.02, -187500.02, -187500.02, -187500.02, -187500.02, 125904.98, 125804.40, 125896.38, 0.06, 0.00, 0.00
245, -187500.02, -187500.02, -187500.02, -187500.02, -187500.02, 125922.80, 125822.16, 125914.08, 0.06, 0.00, 0.00
246, -187500.02, -187500.02, -187500.02, -187500.02, -187500.02, 125893.72, 125793.06, 125885.00, 0.06, 0.00, 0.00
247, -187500.02, -187500.02, -187500.02, -187500.02, -187500.02, 125853.05, 125752.50, 125844.52, 0.06, 0.00, 0.00
248, -187500.02, -187500.02, -187500.02, -187500.02, -187500.02, 125858.55, 125757.93, 125850.02, 0.06, 0.00, 0.00
249, -187500.02, -187500.02, -187500.02, -187500.02, -187500.02, 125883.41, 125782.83, 125874.88, 0.06, 0.00, 0.00
250, -187500.02, -187500.02, -187500.02, -187500.02, -187500.02, 125861.75, 125761.21, 125853.19, 0.06, 0.00, 0.00
251, -187500.02, -187500.02, -187500.02, -187500.02, -187500.02, 125814.57, 125714.05, 125805.83, 0.06, 0.00, 0.00
252, -187500.02, -187500.02, -187500.02, -187500.02, -187500.02, 125815.64, 125715.05, 125806.90, 0.06, 0.00, 0.00
253, -187500.02, -187500.02, -187500.02, -187500.02, -187500.02, 125844.25, 125743.66, 125835.69, 0.07, 0.00, 0.00
254, -187500.02, -187500.02, -187500.02, -187500.02, -187500.02, 125835.53, 125735.02, 125827.04, 0.07, 0.00, 0.00
255, -187500.02, -187500.02, -187500.02, -187500.02, -187500.02, 125789.09, 125688.59, 125780.50, 0.07, 0.00, 0.00
0, -187500.02, -187500.02, -187500.02, -187500.02, -187500.02, 125778.29, 125677.80, 125769.59, 0.07, 0.00, 0.00
1, -187500.02, -187500.02, -187500.02, -187500.02, -187500.02, 125802.45, 125701.87, 125793.78, 0.07, 0.00, 0.00
2, -187500.02, -187500.02, -187500.02, -187500.02, -187500.02, 125802.41, 125701.76, 125793.73, 0.07, 0.00, 0.00
3, -187500.02, -187500.02, -187500.02, -187500.02, -187500.02, 125757.08, 125656.56, 125748.49, 0.07, 0.01, 0.08
4, -187500.02, -187500.02, -187500.02, -187500.02, -187500.02, 125737.34, 125636.78, 125728.67, 0.07, 0.00, 0.00
5, -187500.02, -187500.02, -187500.02, -187500.02, -187500.02, 125760.19, 125659.70, 125751.54, 0.07, 0.00, 0.00
6, -187500.02, -187500.02, -187500.02, -187500.02, -187500.02, 125764.90, 125664.38, 125756.30, 0.07, 0.00, 0.00
7, -187500.02, -187500.02, -187500.02, -187500.02, -187500.02, 125724.65, 125624.02, 125716.06, 0.07, 0.00, 0.00
8, -187500.02, -187500.02, -187500.02, -187500.02, -187500.02, 125694.90, 125594.38, 125686.23, 0.07, 0.00, 0.00
9, -187500.02, -187500.02, -187500.02, -187500.02, -187500.02, 125713.09, 125612.64, 125704.48, 0.07, 0.00, 0.00
10, -187500.02, -187500.02, -187500.02, -187500.02, -187500.02, 125727.75, 125627.33, 125719.20, 0.07, 0.00, 0.00
11, -187500.02, -187500.02, -187500.02, -187500.02, -187500.02, 125692.95, 125592.52, 125684.46, 0.07, 0.00, 0.00
12, -187500.02, -187500.02, -187500.02, -187500.02, -187500.02, 125655.67, 125555.22, 125647.09, 0.07, 0.00, 0.00
13, -187500.02, -187500.02, -187500.02, -187500.02, -187500.02, 125667.11, 125566.73, 125658.53, 0.07, 0.00, 0.00
14, -187500.02, -187500.02, -187500.02, -187500.02, -187500.02, 125684.88, 125584.50, 125676.44, 0.07, 0.00, 0.00
15, -187500.02, -187500.02, -187500.02, -187500.02, -187500.02, 125658.59, 125558.17, 125650.06, 0.07, 0.00, 0.00
16, -187500.02, -187500.02, -187500.02, -187500.02, -187500.02, 125616.87, 125516.40, 125608.28, 0.07, 0.00, 0.00
17, -187500.02, -187500.02, -187500.02, -187500.02, -187500.02, 125623.84, 125523.46, 125615.37, 0.07, 0.00, 0.00
18, -187500.02, -187500.02, -187500.02, -187500.02, -187500.02, 125650.08, 125549.77, 125641.52, 0.07, 0.00, 0.00
19, -187500.02, -187500.02, -187500.02, -187500.02, -187500.02, 125632.09, 125531.70, 125623.48, 0.07, 0.00, 0.00
20, -187500.02, -187500.02, -187500.02, -187500.02, -187500.02, 125583.25, 125482.94, 125574.73, 0.07, 0.00, 0.00
21, -187500.02, -187500.02, -187500.02, -187500.02, -187500.02, 125573.98, 125473.62, 125565.50, 0.07, 0.00, 0.00
22, -187500.02, -187500.02, -187500.02, -187500.02, -187500.02, 125600.77, 125500.37, 125592.19, 0.07, 0.00, 0.00
23, -187500.02, -187500.02, -187500.02, -187500.02, -187500.02, 125593.55, 125493.13, 125584.86, 0.07, 0.00, 0.00
24, -187500.02, -187500.02, -187500.02, -187500.02, -187500.02, 125545.99, 125445.70, 125537.41, 0.07, 0.00, 0.00
25, -187500.02, -187500.02, -187500.02, -187500.02, -187500.02, 125533.61, 125433.20, 125524.95, 0.07, 0.00, 0.00
26, -187500.02, -187500.02, -187500.02, -187500.02, -187500.02, 125558.66, 125458.26, 125550.03, 0.07, 0.00, 0.00
27, -187500.02, -187500.02, -187500.02, -187500.02, -187500.02, 125559.00, 125458.52, 125550.39, 0.07, 0.00, 0.00
28, -187500.02, -187500.02, -187500.02, -187500.02, -187500.02, 125517.47, 125417.02, 125508.84, 0.07, 0.00, 0.00
29, -187500.02, -187500.02, -187500.02, -187500.02, -187500.02, 125493.82, 125393.41, 125485.17, 0.07, 0.00, 0.00
30, -187500.02, -187500.02, -187500.02, -187500.02, -187500.02, 125514.85, 125414.56, 125506.20, 0.07, 0.00, 0.00
31, -187500.02, -187500.02, -187500.02, -187500.02, -187500.02, 125523.68, 125423.37, 125515.10, 0.07, 0.00, 0.00
32, -187500.02, -187500.02, -187500.02, -187500.02, -187500.02, 125486.73, 125386.42, 125478.17, 0.07, 0.00, 0.00
33, -187500.02, -187500.02, -187500.02, -187500.02, -187500.02, 125455.04, 125354.63, 125446.45, 0.07, 0.00, 0.00
34, -187500.02, -187500.02, -187500.02, -187500.02, -187500.02, 125470.41, 125370.02, 125461.90, 0.07, 0.00, 0.00
35, -187500.02, -187500.02, -187500.02, -187500.02, -187500.02, 125486.73, 125386.42, 125478.24, 0.07, 0.00, 0.00
36, -187500.02, -187500.02, -187500.02, -187500.02, -187500.02, 125457.56, 125357.30, 125449.07, 0.07, 0.00, 0.00
37, -187500.02, -187500.02, -187500.02, -187500.02, -187500.02, 125416.77, 125316.37, 125408.13, 0.07, 0.00, 0.00
38, -187500.02, -187500.02, -187500.02, -187500.02, -187500.02, 125423.61, 125323.14, 125415.01, 0.07, 0.00, 0.00
39, -187500.02, -187500.02, -187500.02, -187500.02, -187500.02, 125445.79, 125345.45, 125437.25, 0.07, 0.00, 0.00
40, -187500.02, -187500.02, -187500.02, -187500.02, -187500.02, 125424.33, 125324.08, 125415.88, 0.07, 0.00, 0.00
41, -187500.02, -187500.02, -187500.02, -187500.02, -187500.02, 125377.48, 125277.26, 125369.05, 0.07, 0.00, 0.00
42, -187500.02, -187500.02, -187500.02, -187500.02, -187500.02, 125375.36, 125275.11, 125366.86, 0.07, 0.00, 0.00
43, -187500.02, -187500.02, -187500.02, -187500.02, -187500.02, 125400.34, 125300.08, 125391.78, 0.07, 0.00, 0.00
44, -187500.02, -187500.02, -187500.02, -187500.02, -187500.02, 125387.98, 125287.65, 125379.34, 0.07, 0.00, 0.00
45, -187500.02, -187500.02, -187500.02, -187500.02, -187500.02, 125342.90, 125242.63, 125334.34, 0.07, 0.00, 0.00
46, -187500.02, -187500.02, -187500.02, -187500.02, -187500.02, 125333.80, 125233.60, 125325.24, 0.07, 0.00, 0.00
47, -187500.02, -187500.02, -187500.02, -187500.02, -187500.02, 125361.95, 125261.66, 125353.25, 0.07, 0.00, 0.00
48, -187500.02, -187500.02, -187500.02, -187500.02, -187500.02, 125354.03, 125253.78, 125345.52, 0.06, 0.00, 0.00
49, -187500.02, -187500.02, -187500.02, -187500.02, -187500.02, 125305.59, 125205.39, 125297.08, 0.06, 0.00, 0.00
50, -187500.02, -187500.02, -187500.02, -187500.02, -187500.02, 125287.36, 125187.27, 125278.82, 0.06, 0.00, 0.00
51, -187500.02, -187500.02, -187500.02, -187500.02, -187500.02, 125311.72, 125211.45, 125303.05, 0.06, 0.00, 0.00
52, -187500.02, -187500.02, -187500.02, -187500.02, -187500.02, 125317.22, 125216.91, 125308.50, 0.06, 0.00, 0.00
53, -187500.02, -187500.02, -187500.02, -187500.02, -187500.02, 125278.98, 125178.75, 125270.44, 0.06, 0.00, 0.00
54, -187500.02, -187500.02, -187500.02, -187500.02, -187500.02, 125251.86, 125151.68, 125243.32, 0.06, 0.00, 0.00
55, -187500.02, -187500.02, -187500.02, -187500.02, -187500.02, 125272.05, 125171.82, 125263.59, 0.06, 0.00, 0.00
56, -187500.02, -187500.02, -187500.02, -187500.02, -187500.02, 125284.85, 125184.59, 125276.36, 0.06, 0.00, 0.00
57, -187500.02, -187500.02, -187500.02, -187500.02, -187500.02, 125248.71, 125148.40, 125240.04, 0.06, 0.00, 0.00
58, -187500.02, -187500.02, -187500.02, -187500.02, -187500.02, 125212.21, 125111.96, 125203.65, 0.06, 0.00, 0.00
59, -187500.02, -187500.02, -187500.02, -187500.02, -187500.02, 125225.06, 125124.77, 125216.46, 0.06, 0.00, 0.00
60, -187500.02, -187500.02, -187500.02, -187500.02, -187500.02, 125242.41, 125142.18, 125233.89, 0.06, 0.00, 0.00
61, -187500.02, -187500.02, -187500.02, -187500.02, -187500.02, 125215.43, 125115.23, 125206.84, 0.06, 0.00, 0.00
62, -187500.02, -187500.02, -187500.02, -187500.02, -187500.02, 125173.85, 125073.61, 125165.30, 0.06, 0.00, 0.00
63, -187500.02, -187500.02, -187500.02, -187500.02, -187500.02, 125179.63, 125079.42, 125171.06, 0.06, 0.00, 0.00
64, -187500.02, -187500.02, -187500.02, -187500.02, -187500.02, 125204.09, 125103.85, 125195.55, 0.06, 0.00, 0.00
65, -187500.02, -187500.02, -187500.02, -187500.02, -187500.02, 125187.87, 125087.64, 125179.27, 0.06, 0.00, 0.00
66, -187500.02, -187500.02, -187500.02, -187500.02, -187500.02, 125143.19, 125043.05, 125134.63, 0.06, 0.00, 0.00
67, -187500.02, -187500.02, -187500.02, -187500.02, -187500.02, 125137.82, 125037.71, 125129.42, 0.06, 0.00, 0.00
68, -187500.02, -187500.02, -187500.02, -187500.02, -187500.02, 125160.02, 125059.84, 125151.46, 0.06, 0.00, 0.00
69, -187500.02, -187500.02, -187500.02, -187500.02, -187500.02, 125150.61, 125050.48, 125142.07, 0.06, 0.00, 0.00
70, -187500.02, -187500.02, -187500.02, -187500.02, -187500.02, 125105.19, 125004.98, 125096.65, 0.06, 0.00, 0.00
71, -187500.02, -187500.02, -187500.02, -187500.02, -187500.02, 125091.82, 124991.62, 125083.24, 0.06, 0.00, 0.00
72, -187500.02, -187500.02, -187500.02, -187500.02, -187500.02, 125113.98, 125013.84, 125105.44, 0.06, 0.00, 0.00
73, -187500.02, -187500.02, -187500.02, -187500.02, -187500.02, 125113.66, 125013.50, 125105.23, 0.06, 0.00, 0.00
74, -187500.02, -187500.02, -187500.02, -187500.02, -187500.02, 125068.35, 124968.22, 125059.88, 0.06, 0.00, 0.00
75, -187500.02, -187500.02, -187500.02, -187500.02, -187500.02, 125043.81, 124943.66, 125035.27, 0.06, 0.00, 0.00
76, -187500.02, -187500.02, -187500.02, -187500.02, -187500.02, 125066.74, 124966.45, 125058.16, 0.06, 0.00, 0.00
77, -187500.02, -187500.02, -187500.02, -187500.02, -187500.02, 125075.44, 124975.10, 125066.88, 0.06, 0.00, 0.00
78, -187500.02, -187500.02, -187500.02, -187500.02, -187500.02, 125035.38, 124935.20, 125026.89, 0.06, 0.00, 0.00
79, -187500.02, -187500.02, -187500.02, -187500.02, -187500.02, 125003.00, 124902.98, 124994.55, 0.06, 0.00, 0.00
80, -187500.02, -187500.02, -187500.02, -187500.02, -187500.02, 125018.33, 124918.22, 125009.86, 0.06, 0.00, 0.00
81, -187500.02, -187500.02, -187500.02, -187500.02, -187500.02, 125035.12, 124934.87, 125026.60, 0.06, 0.00, 0.00
82, -187500.02, -187500.02, -187500.02, -187500.02, -187500.02, 125003.02, 124902.88, 124994.62, 0.06, 0.00, 0.00
83, -187500.02, -187500.02, -187500.02, -187500.02, -187500.02, 124965.45, 124865.40, 124957.09, 0.06, 0.00, 0.00
84, -187500.02, -187500.02, -187500.02, -187500.02, -187500.02, 124975.20, 124875.13, 124966.74, 0.06, 0.00, 0.00
85, -187500.02, -187500.02, -187500.02, -187500.02, -187500.02, 124997.68, 124897.34, 124989.03, 0.06, 0.00, 0.00
86, -187500.02, -187500.02, -187500.02, -187500.02, -187500.02, 124974.41, 124874.07, 124965.76, 0.06, 0.00, 0.00
87, -187500.02, -187500.02, -187500.02, -187500.02, -187500.02, 124929.28, 124829.13, 124920.63, 0.06, 0.00, 0.00
88, -187500.02, -187500.02, -187500.02, -187500.02, -187500.02, 124931.43, 124831.43, 124922.87, 0.06, 0.00, 0.00
89, -187500.02, -187500.02, -187500.02, -187500.02, -187500.02, 124957.45, 124857.38, 124948.93, 0.06, 0.00, 0.00
90, -187500.02, -187500.02, -187500.02, -187500.02, -187500.02, 124945.20, 124845.06, 124936.68, 0.06, 0.00, 0.00
91, -187500.02, -187500.02, -187500.02, -187500.02, -187500.02, 124897.23, 124797.18, 124888.69, 0.06, 0.00, 0.00
92, -187500.02, -187500.02, -187500.02, -187500.02, -187500.02, 124888.94, 124788.82, 124880.38, 0.06, 0.00, 0.00
93, -187500.02, -187500.02, -187500.02, -187500.02, -187500.02, 124917.55, 124817.37, 124909.05, 0.06, 0.00, 0.00
94, -187500.02, -187500.02, -187500.02, -187500.02, -187500.02, 124912.61, 124812.49, 124904.16, 0.06, 0.00, 0.00
95, -187500.02, -187500.02, -187500.02, -187500.02, -187500.02, 124864.10, 124763.99, 124855.63, 0.06, 0.00, 0.00
96, -187500.02, -187500.02, -187500.02, -187500.02, -187500.02, 124844.28, 124744.21, 124835.77, 0.06, 0.00, 0.00
97, -187500.02, -187500.02, -187500.02, -187500.02, -187500.02, 124869.85, 124769.69, 124861.31, 0.06, 0.00, 0.00
98, -187500.02, -187500.02, -187500.02, -187500.02, -187500.02, 124876.20, 124776.06, 124867.63, 0.06, 0.00, 0.00
99, -187500.02, -187500.02, -187500.02, -187500.02, -187500.02, 124834.63, 124734.60, 124826.13, 0.06, 0.00, 0.00
100, -187500.02, -187500.02, -187500.02, -187500.02, -187500.02, 124807.27, 124707.20, 124798.75, 0.06, 0.00, 0.00
101, -187500.02, -187500.02, -187500.02, -187500.02, -187500.02, 124828.88, 124728.79, 124820.32, 0.06, 0.00, 0.00
102, -187500.02, -187500.02, -187500.02, -187500.02, -187500.02, 124840.41, 124740.45, 124831.88, 0.06, 0.00, 0.00
103, -187500.02, -187500.02, -187500.02, -187500.02, -187500.02, 124802.97, 124703.04, 124794.48, 0.06, 0.00, 0.00
104, -187500.02, -187500.02, -187500.02, -187500.02, -187500.02, 124770.07, 124669.94, 124761.53, 0.06, 0.00, 0.00
105, -187500.02, -187500.02, -187500.02, -187500.02, -187500.02, 124785.90, 124685.73, 124777.42, 0.06, 0.00, 0.00
106, -187500.02, -187500.02, -187500.02, -187500.02, -187500.02, 124802.41, 124702.32, 124793.88, 0.06, 0.00, 0.00
107, -187500.02, -187500.02, -187500.02, -187500.02, -187500.02, 124772.30, 124672.23, 124763.73, 0.06, 0.00, 0.00
108, -187500.02, -187500.02, -187500.02, -187500.02, -187500.02, 124730.28, 124630.17, 124721.63, 0.06, 0.00, 0.00
109, -187500.02, -187500.02, -187500.02, -187500.02, -187500.02, 124737.84, 124637.70, 124729.23, 0.06, 0.00, 0.00
110, -187500.02, -187500.02, -187500.02, -187500.02, -187500.02, 124761.24, 124661.15, 124752.59, 0.06, 0.00, 0.00
111, -187500.02, -187500.02, -187500.02, -187500.02, -187500.02, 124739.88, 124639.76, 124731.24, 0.06, 0.00, 0.00
112, -187500.02, -187500.02, -187500.02, -187500.02, -187500.02, 124692.31, 124592.22, 124683.68, 0.06, 0.00, 0.00
113, -187500.02, -187500.02, -187500.02, -187500.02, -187500.02, 124692.33, 124592.38, 124683.79, 0.06, 0.00, 0.00
114, -187500.02, -187500.02, -187500.02, -187500.02, -187500.02, 124717.95, 124617.97, 124709.34, 0.06, 0.00, 0.00
115, -187500.02, -187500.02, -187500.02, -187500.02, -187500.02, 124704.65, 124604.78, 124696.09, 0.06, 0.00, 0.00
116, -187500.02, -187500.02, -187500.02, -187500.02, -187500.02, 124658.09, 124558.20, 124649.66, 0.06, 0.00, 0.00
117, -187500.02, -187500.02, -187500.02, -187500.02, -187500.02, 124646.82, 124546.80, 124638.24, 0.06, 0.00, 0.00
118, -187500.02, -187500.02, -187500.02, -187500.02, -187500.02, 124672.93, 124572.93, 124664.37, 0.06, 0.00, 0.00
119, -187500.02, -187500.02, -187500.02, -187500.02, -187500.02, 124670.02, 124570.05, 124661.58, 0.06, 0.00, 0.00
120, -187500.02, -187500.02, -187500.02, -187500.02, -187500.02, 124623.87, 124523.93, 124615.40, 0.06, 0.00, 0.00
121, -187500.02, -187500.02, -187500.02, -187500.02, -187500.02, 124603.88, 124503.88, 124595.37, 0.06, 0.00, 0.00
122, -187500.02, -187500.02, -187500.02, -187500.02, -187500.02, 124627.45, 124527.45, 124618.88, 0.06, 0.00, 0.00
123, -187500.02, -187500.02, -187500.02, -187500.02, -187500.02, 124636.07, 124536.16, 124627.51, 0.06, 0.00, 0.00
124, -187500.02, -187500.02, -187500.02, -187500.02, -187500.02, 124594.19, 124494.16, 124585.49, 0.06, 0.00, 0.00
125, -187500.02, -187500.02, -187500.02, -187500.02, -187500.02, 124564.84, 124464.77, 124556.16, 0.06, 0.00, 0.00
126, -187500.02, -187500.02, -187500.02, -187500.02, -187500.02, 124582.92, 124482.88, 124574.34, 0.06, 0.00, 0.00
127, -187500.02, -187500.02, -187500.02, -187500.02, -187500.02, 124593.27, 124493.18, 124584.84, 0.06, 0.00, 0.00
128, -187500.02, -187500.02, -187500.02, -187500.02, -187500.02, 124560.21, 124460.16, 124551.76, 0.06, 0.00, 0.00
129, -187500.02, -187500.02, -187500.02, -187500.02, -187500.02, 124526.80, 124426.77, 124518.23, 0.06, 0.00, 0.00
130, -187500.02, -187500.02, -187500.02, -187500.02, -187500.02, 124541.10, 124441.19, 124532.59, 0.06, 0.00, 0.00
131, -187500.02, -187500.02, -187500.02, -187500.02, -187500.02, 124560.81, 124460.97, 124552.39, 0.06, 0.00, 0.00
132, -187500.02, -187500.02, -187500.02, -187500.02, -187500.02, 124536.27, 124436.36, 124527.84, 0.06, 0.00, 0.00
133, -187500.02, -187500.02, -187500.02, -187500.02, -187500.02, 124494.32, 124394.43, 124485.76, 0.06, 0.00, 0.00
134, -187500.02, -187500.02, -187500.02, -187500.02, -187500.02, 124497.94, 124398.05, 124489.42, 0.06, 0.00, 0.00
135, -187500.02, -187500.02, -187500.02, -187500.02, -187500.02, 124521.77, 124421.83, 124513.20, 0.06, 0.00, 0.00
136, -187500.02, -187500.02, -187500.02, -187500.02, -187500.02, 124503.75, 124403.84, 124495.23, 0.06, 0.00, 0.00
137, -187500.02, -187500.02, -187500.02, -187500.02, -187500.02, 124457.48, 124357.77, 124448.98, 0.06, 0.00, 0.00
138, -187500.02, -187500.02, -187500.02, -187500.02, -187500.02, 124452.34, 124352.65, 124443.91, 0.06, 0.00, 0.00
139, -187500.02, -187500.02, -187500.02, -187500.02, -187500.02, 124478.34, 124378.58, 124469.88, 0.06, 0.00, 0.00
140, -187500.02, -187500.02, -187500.02, -187500.02, -187500.02, 124473.71, 124373.84, 124465.17, 0.06, 0.00, 0.00
141, -187500.02, -187500.02, -187500.02, -187500.02, -187500.02, 124430.08, 124330.08, 124421.45, 0.06, 0.00, 0.00
142, -187500.02, -187500.02, -187500.02, -187500.02, -187500.02, 124416.20, 124316.33, 124407.59, 0.06, 0.00, 0.00
143, -187500.02, -187500.02, -187500.02, -187500.02, -187500.02, 124442.73, 124342.88, 124434.19, 0.06, 0.00, 0.00
144, -187500.02, -187500.02, -187500.02, -187500.02, -187500.02, 124441.21, 124341.38, 124432.80, 0.06, 0.00, 0.00
145, -187500.02, -187500.02, -187500.02, -187500.02, -187500.02, 124396.28, 124296.39, 124387.77, 0.06, 0.00, 0.00
146, -187500.02, -187500.02, -187500.02, -187500.02, -187500.02, 124371.45, 124271.58, 124362.87, 0.06, 0.00, 0.00
147, -187500.02, -187500.02, -187500.02, -187500.02, -187500.02, 124391.79, 124291.95, 124383.27, 0.06, 0.00, 0.00
148, -187500.02, -187500.02, -187500.02, -187500.02, -187500.02, 124398.96, 124299.14, 124390.49, 0.06, 0.00, 0.00
149, -187500.02, -187500.02, -187500.02, -187500.02, -187500.02, 124361.95, 124262.24, 124353.57, 0.06, 0.00, 0.00
150, -187500.02, -187500.02, -187500.02, -187500.02, -187500.02, 124332.70, 124232.96, 124324.24, 0.06, 0.00, 0.00
151, -187500.02, -187500.02, -187500.02, -187500.02, -187500.02, 124346.80, 124246.99, 124338.34, 0.06, 0.00, 0.00
152, -187500.02, -187500.02, -187500.02, -187500.02, -187500.02, 124363.00, 124263.20, 124354.55, 0.06, 0.00, 0.00
153, -187500.02, -187500.02, -187500.02, -187500.02, -187500.02, 124333.98, 124234.19, 124325.45, 0.06, 0.00, 0.00
154, -187500.02, -187500.02, -187500.02, -187500.02, -187500.02, 124294.29, 124194.40, 124285.71, 0.06, 0.00, 0.00
155, -187500.02, -187500.02, -187500.02, -187500.02, -187500.02, 124303.37, 124203.55, 124294.78, 0.06, 0.00, 0.00
156, -187500.02, -187500.02, -187500.02, -187500.02, -187500.02, 124324.78, 124225.05, 124316.20, 0.06, 0.00, 0.00
157, -187500.02, -187500.02, -187500.02, -187500.02, -187500.02, 124300.98, 124201.13, 124292.26, 0.07, 0.00, 0.00
158, -187500.02, -187500.02, -187500.02, -187500.02, -187500.02, 124257.16, 124157.30, 124248.47, 0.07, 0.00, 0.00
159, -187500.02, -187500.02, -187500.02, -187500.02, -187500.02, 124260.70, 124160.77, 124252.02, 0.07, 0.01, 0.08
160, -187500.02, -187500.02, -187500.02, -187500.02, -187500.02, 124284.13, 124184.25, 124275.59, 0.07, 0.00, 0.00
161, -187500.02, -187500.02, -187500.02, -187500.02, -187500.02, 124270.84, 124170.95, 124262.20, 0.07, 0.00, 0.00
162, -187500.02, -187500.02, -187500.02, -187500.02, -187500.02, 124226.52, 124126.67, 124217.89, 0.07, 0.00, 0.00
163, -187500.02, -187500.02, -187500.02, -187500.02, -187500.02, 124217.54, 124117.69, 124208.95, 0.07, 0.00, 0.00
164, -187500.02, -187500.02, -187500.02, -187500.02, -187500.02, 124241.97, 124142.05, 124233.34, 0.07, 0.00, 0.00
165, -187500.02, -187500.02, -187500.02, -187500.02, -187500.02, 124237.32, 124137.41, 124228.63, 0.07, 0.00, 0.00
166, -187500.02, -187500.02, -187500.02, -187500.02, -187500.02, 124191.16, 124091.34, 124182.58, 0.07, 0.00, 0.00
167, -187500.02, -187500.02, -187500.02, -187500.02, -187500.02, 124176.27, 124076.45, 124167.87, 0.07, 0.00, 0.00
168, -187500.02, -187500.02, -187500.02, -187500.02, -187500.02, 124198.65, 124098.96, 124190.27, 0.07, 0.00, 0.00
169, -187500.02, -187500.02, -187500.02, -187500.02, -187500.02, 124201.35, 124101.64, 124192.84, 0.07, 0.00, 0.00
170, -187500.02, -187500.02, -187500.02, -187500.02, -187500.02, 124158.33, 124058.46, 124149.70, 0.07, 0.00, 0.00
171, -187500.02, -187500.02, -187500.02, -187500.02, -187500.02, 124130.95, 124031.19, 124122.43, 0.07, 0.00, 0.00
172, -187500.02, -187500.02, -187500.02, -187500.02, -187500.02, 124149.48, 124049.72, 124141.00, 0.07, 0.00, 0.00
173, -187500.02, -187500.02, -187500.02, -187500.02, -187500.02, 124162.10, 124062.33, 124153.61, 0.07, 0.00, 0.00
174, -187500.02, -187500.02, -187500.02, -187500.02, -187500.02, 124127.41, 124027.61, 124118.92, 0.07, 0.00, 0.00
175, -187500.02, -187500.02, -187500.02, -187500.02, -187500.02, 124092.66, 123992.90, 124084.19, 0.07, 0.00, 0.00
176, -187500.02, -187500.02, -187500.02, -187500.02, -187500.02, 124104.91, 124005.22, 124096.39, 0.07, 0.00, 0.00
177, -187500.02, -187500.02, -187500.02, -187500.02, -187500.02, 124122.65, 124022.90, 124114.16, 0.07, 0.00, 0.00
178, -187500.02, -187500.02, -187500.02, -187500.02, -187500.02, 124094.51, 123994.71, 124085.95, 0.07, 0.00, 0.00
179, -187500.02, -187500.02, -187500.02, -187500.02, -187500.02, 124054.50, 123954.79, 124045.94, 0.07, 0.00, 0.00
180, -187500.02, -187500.02, -187500.02, -187500.02, -187500.02, 124060.20, 123960.42, 124051.57, 0.07, 0.00, 0.00
181, -187500.02, -187500.02, -187500.02, -187500.02, -187500.02, 124084.48, 123984.63, 124075.87, 0.07, 0.00, 0.00
182, -187500.02, -187500.02, -187500.02, -187500.02, -187500.02, 124065.05, 123965.23, 124056.49, 0.07, 0.00, 0.00
183, -187500.02, -187500.02, -187500.02, -187500.02, -187500.02, 124018.41, 123918.65, 124009.91, 0.07, 0.00, 0.00
184, -187500.02, -187500.02, -187500.02, -187500.02, -187500.02, 124015.99, 123916.23, 124007.50, 0.07, 0.00, 0.00
185, -187500.02, -187500.02, -187500.02, -187500.02, -187500.02, 124041.43, 123941.67, 124032.91, 0.07, 0.00, 0.00
186, -187500.02, -187500.02, -187500.02, -187500.02, -187500.02, 124032.04, 123932.35, 124023.55, 0.07, 0.00, 0.00
187, -187500.02, -187500.02, -187500.02, -187500.02, -187500.02, 123985.30, 123885.68, 123976.77, 0.07, 0.00, 0.00
188, -187500.02, -187500.02, -187500.02, -187500.02, -187500.02, 123972.31, 123872.67, 123963.80, 0.07, 0.00, 0.00
189, -187500.02, -187500.02, -187500.02, -187500.02, -187500.02, 123993.08, 123893.30, 123984.45, 0.07, 0.00, 0.00
190, -187500.02, -187500.02, -187500.02, -187500.02, -187500.02, 123991.80, 123892.09, 123983.24, 0.07, 0.00, 0.00
191, -187500.02, -187500.02, -187500.02, -187500.02, -187500.02, 123948.89, 123849.29, 123940.42, 0.07, 0.00, 0.00
192, -187500.02, -187500.02, -187500.02, -187500.02, -187500.02, 123927.37, 123827.77, 123918.91, 0.07, 0.00, 0.00
193, -187500.02, -187500.02, -187500.02, -187500.02, -187500.02, 123949.07, 123849.42, 123940.51, 0.07, 0.00, 0.00
194, -187500.02, -187500.02, -187500.02, -187500.02, -187500.02, 123956.35, 123856.63, 123947.75, 0.07, 0.00, 0.00
195, -187500.02, -187500.02, -187500.02, -187500.02, -187500.02, 123916.41, 123816.61, 123907.80, 0.07, 0.00, 0.00
196, -187500.02, -187500.02, -187500.02, -187500.02, -187500.02, 123887.24, 123787.58, 123878.70, 0.07, 0.00, 0.00
197, -187500.02, -187500.02, -187500.02, -187500.02, -187500.02, 123904.74, 123805.08, 123896.19, 0.07, 0.00, 0.00
198, -187500.02, -187500.02, -187500.02, -187500.02, -187500.02, 123921.98, 123822.36, 123913.46, 0.07, 0.00, 0.00
199, -187500.02, -187500.02, -187500.02, -187500.02, -187500.02, 123890.46, 123790.84, 123881.99, 0.07, 0.00, 0.00
200, -187500.02, -187500.02, -187500.02, -187500.02, -187500.02, 123851.88, 123752.20, 123843.32, 0.07, 0.00, 0.00
201, -187500.02, -187500.02, -187500.02, -187500.02, -187500.02, 123860.98, 123761.41, 123852.48, 0.07, 0.00, 0.00
202, -187500.02, -187500.02, -187500.02, -187500.02, -187500.02, 123879.24, 123779.55, 123870.73, 0.07, 0.00, 0.00
203, -187500.02, -187500.02, -187500.02, -187500.02, -187500.02, 123852.62, 123752.93, 123844.06, 0.07, 0.00, 0.00
204, -187500.02, -187500.02, -187500.02, -187500.02, -187500.02, 123809.75, 123710.04, 123801.19, 0.07, 0.00, 0.00
205, -187500.02, -187500.02, -187500.02, -187500.02, -187500.02, 123814.31, 123714.60, 123805.68, 0.06, 0.00, 0.00
206, -187500.02, -187500.02, -187500.02, -187500.02, -187500.02, 123841.31, 123741.63, 123832.75, 0.06, 0.00, 0.00
207, -187500.02, -187500.02, -187500.02, -187500.02, -187500.02, 123823.54, 123723.90, 123814.91, 0.06, 0.00, 0.00
208, -187500.02, -187500.02, -187500.02, -187500.02, -187500.02, 123774.99, 123675.35, 123766.37, 0.06, 0.00, 0.00
209, -187500.02, -187500.02, -187500.02, -187500.02, -187500.02, 123770.01, 123670.27, 123761.47, 0.06, 0.00, 0.00
210, -187500.02, -187500.02, -187500.02, -187500.02, -187500.02, 123795.42, 123695.69, 123786.77, 0.06, 0.00, 0.00
211, -187500.02, -187500.02, -187500.02, -187500.02, -187500.02, 123789.68, 123689.92, 123781.03, 0.06, 0.00, 0.00
212, -187500.02, -187500.02, -187500.02, -187500.02, -187500.02, 123745.55, 123646.00, 123737.09, 0.06, 0.00, 0.00
213, -187500.02, -187500.02, -187500.02, -187500.02, -187500.02, 123729.95, 123630.31, 123721.35, 0.06, 0.00, 0.00
214, -187500.02, -187500.02, -187500.02, -187500.02, -187500.02, 123752.80, 123653.18, 123744.33, 0.06, 0.00, 0.00
215, -187500.02, -187500.02, -187500.02, -187500.02, -187500.02, 123755.21, 123655.59, 123746.79, 0.06, 0.00, 0.00
216, -187500.02, -187500.02, -187500.02, -187500.02, -187500.02, 123713.86, 123614.22, 123705.21, 0.06, 0.00, 0.00
217, -187500.02, -187500.02, -187500.02, -187500.02, -187500.02, 123689.23, 123589.56, 123680.63, 0.06, 0.00, 0.00
218, -187500.02, -187500.02, -187500.02, -187500.02, -187500.02, 123709.44, 123609.70, 123700.85, 0.06, 0.00, 0.00
219, -187500.02, -187500.02, -187500.02, -187500.02, -187500.02, 123720.19, 123620.43, 123711.65, 0.06, 0.00, 0.00
220, -187500.02, -187500.02, -187500.02, -187500.02, -187500.02, 123682.28, 123582.61, 123673.74, 0.06, 0.00, 0.00
221, -187500.02, -187500.02, -187500.02, -187500.02, -187500.02, 123648.28, 123548.70, 123639.72, 0.06, 0.00, 0.00
222, -187500.02, -187500.02, -187500.02, -187500.02, -187500.02, 123664.66, 123565.00, 123656.06, 0.06, 0.00, 0.00
223, -187500.02, -187500.02, -187500.02, -187500.02, -187500.02, 123683.24, 123583.59, 123674.70, 0.06, 0.00, 0.00
224, -187500.02, -187500.02, -187500.02, -187500.02, -187500.02, 123652.41, 123552.93, 123643.92, 0.06, 0.00, 0.00
225, -187500.02, -187500.02, -187500.02, -187500.02, -187500.02, 123611.02, 123511.49, 123602.51, 0.06, 0.00, 0.00
226, -187500.02, -187500.02, -187500.02, -187500.02, -187500.02, 123616.56, 123516.95, 123608.00, 0.06, 0.00, 0.00
227, -187500.02, -187500.02, -187500.02, -187500.02, -187500.02, 123638.38, 123538.84, 123629.84, 0.06, 0.00, 0.00
228, -187500.02, -187500.02, -187500.02, -187500.02, -187500.02, 123618.60, 123519.06, 123609.97, 0.06, 0.00, 0.00
229, -187500.02, -187500.02, -187500.02, -187500.02, -187500.02, 123576.51, 123477.00, 123568.02, 0.06, 0.00, 0.00
230, -187500.02, -187500.02, -187500.02, -187500.02, -187500.02, 123576.63, 123477.05, 123568.06, 0.06, 0.00, 0.00
231, -187500.02, -187500.02, -187500.02, -187500.02, -187500.02, 123600.98, 123501.41, 123592.42, 0.06, 0.00, 0.00
232, -187500.02, -187500.02, -187500.02, -187500.02, -187500.02, 123586.61, 123487.04, 123578.05, 0.06, 0.00, 0.00
233, -187500.02, -187500.02, -187500.02, -187500.02, -187500.02, 123538.76, 123439.16, 123530.22, 0.06, 0.00, 0.00
234, -187500.02, -187500.02, -187500.02, -187500.02, -187500.02, 123531.18, 123431.60, 123522.75, 0.06, 0.00, 0.00
235, -187500.02, -187500.02, -187500.02, -187500.02, -187500.02, 123557.98, 123458.58, 123549.60, 0.06, 0.00, 0.00
236, -187500.02, -187500.02, -187500.02, -187500.02, -187500.02, 123555.55, 123456.10, 123547.05, 0.06, 0.00, 0.00
237, -187500.02, -187500.02, -187500.02, -187500.02, -187500.02, 123511.69, 123412.23, 123503.17, 0.06, 0.00, 0.00
238, -187500.02, -187500.02, -187500.02, -187500.02, -187500.02, 123490.23, 123390.74, 123481.72, 0.06, 0.00, 0.00
239, -187500.02, -187500.02, -187500.02, -187500.02, -187500.02, 123512.14, 123412.65, 123503.64, 0.06, 0.00, 0.00
240, -187500.02, -187500.02, -187500.02, -187500.02, -187500.02, 123516.52, 123417.01, 123508.00, 0.06, 0.00, 0.00
241, -187500.02, -187500.02, -187500.02, -187500.02, -187500.02, 123474.59, 123375.12, 123466.09, 0.06, 0.00, 0.00
242, -187500.02, -187500.02, -187500.02, -187500.02, -187500.02, 123447.27, 123347.85, 123438.82, 0.06, 0.00, 0.00
243, -187500.02, -187500.02, -187500.02, -187500.02, -187500.02, 123468.08, 123368.68, 123459.72, 0.06, 0.00, 0.00
244, -187500.02, -187500.02, -187500.02, -187500.02, -187500.02, 123479.50, 123380.13, 123471.13, 0.06, 0.00, 0.00
245, -187500.02, -187500.02, -187500.02, -187500.02, -187500.02, 123441.70, 123342.29, 123433.23, 0.06, 0.00, 0.00
246, -187500.02, -187500.02, -187500.02, -187500.02, -187500.02, 123406.15, 123306.73, 123397.67, 0.06, 0.00, 0.00
247, -187500.02, -187500.02, -187500.02, -187500.02, -187500.02, 123420.70, 123321.37, 123412.29, 0.06, 0.00, 0.00
248, -187500.02, -187500.02, -187500.02, -187500.02, -187500.02, 123440.37, 123340.99, 123431.94, 0.06, 0.00, 0.00
249, -187500.02, -187500.02, -187500.02, -187500.02, -187500.02, 123410.48, 123310.99, 123402.05, 0.06, 0.00, 0.00
250, -187500.02, -187500.02, -187500.02, -187500.02, -187500.02, 123369.69, 123270.18, 123361.06, 0.06, 0.00, 0.00
251, -187500.02, -187500.02, -187500.02, -187500.02, -187500.02, 123373.94, 123274.47, 123365.35, 0.06, 0.00, 0.00
252, -187500.02, -187500.02, -187500.02, -187500.02, -187500.02, 123398.81, 123299.33, 123390.32, 0.06, 0.00, 0.00
253, -187500.02, -187500.02, -187500.02, -187500.02, -187500.02, 123380.17, 123280.66, 123371.61, 0.06, 0.00, 0.00
254, -187500.02, -187500.02, -187500.02, -187500.02, -187500.02, 123336.27, 123236.77, 123327.63, 0.06, 0.00, 0.00
255, -187500.02, -187500.02, -187500.02, -187500.02, -187500.02, 123330.38, 123230.86, 123321.77, 0.06, 0.00, 0.00
0, -187500.02, -187500.02, -187500.02, -187500.02, -187500.02, 123350.35, 123250.94, 123341.86, 0.06, 0.00, 0.00
1, -187500.02, -187500.02, -187500.02, -187500.02, -187500.02, 123343.96, 123244.63, 123335.47, 0.06, 0.00, 0.00
2, -187500.02, -187500.02, -187500.02, -187500.02, -187500.02, 123299.88, 123200.55, 123291.34, 0.06, 0.00, 0.00
3, -187500.02, -187500.02, -187500.02, -187500.02, -187500.02, 123287.70, 123188.38, 123279.23, 0.06, 0.00, 0.00
4, -187500.02, -187500.02, -187500.02, -187500.02, -187500.02, 123313.70, 123214.30, 123305.20, 0.06, 0.00, 0.00
5, -187500.02, -187500.02, -187500.02, -187500.02, -187500.02, 123314.16, 123214.81, 123305.65, 0.06, 0.00, 0.00
6, -187500.02, -187500.02, -187500.02, -187500.02, -187500.02, 123270.07, 123170.63, 123261.55, 0.06, 0.00, 0.00
7, -187500.02, -187500.02, -187500.02, -187500.02, -187500.02, 123248.21, 123148.70, 123239.67, 0.06, 0.00, 0.00
8, -187500.02, -187500.02, -187500.02, -187500.02, -187500.02, 123272.37, 123172.95, 123263.88, 0.06, 0.00, 0.00
9, -187500.02, -187500.02, -187500.02, -187500.02, -187500.02, 123282.90, 123183.43, 123274.31, 0.06, 0.00, 0.00
10, -187500.02, -187500.02, -187500.02, -187500.02, -187500.02, 123243.73, 123144.34, 123235.24, 0.06, 0.00, 0.00
11, -187500.02, -187500.02, -187500.02, -187500.02, -187500.02, 123211.17, 123111.70, 123202.66, 0.06, 0.00, 0.00
12, -187500.02, -187500.02, -187500.02, -187500.02, -187500.02, 123225.45, 123126.16, 123216.91, 0.06, 0.00, 0.00
13, -187500.02, -187500.02, -187500.02, -187500.02, -187500.02, 123242.95, 123143.63, 123234.41, 0.06, 0.00, 0.00
14, -187500.02, -187500.02, -187500.02, -187500.02, -187500.02, 123208.84, 123109.52, 123200.33, 0.06, 0.00, 0.00
15, -187500.02, -187500.02, -187500.02, -187500.02, -187500.02, 123169.69, 123070.22, 123161.13, 0.06, 0.00, 0.00
16, -187500.02, -187500.02, -187500.02, -187500.02, -187500.02, 123182.00, 123082.54, 123173.46, 0.06, 0.00, 0.00
17, -187500.02, -187500.02, -187500.02, -187500.02, -187500.02, 123201.16, 123101.78, 123192.64, 0.06, 0.00, 0.00
18, -187500.02, -187500.02, -187500.02, -187500.02, -187500.02, 123178.70, 123079.41, 123170.18, 0.06, 0.00, 0.00
19, -187500.02, -187500.02, -187500.02, -187500.02, -187500.02, 123134.86, 123035.58, 123126.37, 0.06, 0.00, 0.00
20, -187500.02, -187500.02, -187500.02, -187500.02, -187500.02, 123134.17, 123034.77, 123125.66, 0.06, 0.00, 0.00
21, -187500.02, -187500.02, -187500.02, -187500.02, -187500.02, 123155.85, 123056.38, 123147.31, 0.06, 0.00, 0.00
22, -187500.02, -187500.02, -187500.02, -187500.02, -187500.02, 123140.14, 123040.74, 123131.64, 0.06, 0.00, 0.00
23, -187500.02, -187500.02, -187500.02, -187500.02, -187500.02, 123093.98, 122994.63, 123085.48, 0.06, 0.00, 0.00
24, -187500.02, -187500.02, -187500.02, -187500.02, -187500.02, 123087.77, 122988.37, 123079.23, 0.06, 0.00, 0.00
25, -187500.02, -187500.02, -187500.02, -187500.02, -187500.02, 123113.72, 123014.38, 123105.23, 0.06, 0.00, 0.00
26, -187500.02, -187500.02, -187500.02, -187500.02, -187500.02, 123109.47, 123010.19, 123100.95, 0.06, 0.00, 0.00
27, -187500.02, -187500.02, -187500.02, -187500.02, -187500.02, 123062.51, 122963.18, 123053.95, 0.06, 0.00, 0.00
28, -187500.02, -187500.02, -187500.02, -187500.02, -187500.02, 123045.86, 122946.50, 123037.32, 0.06, 0.00, 0.00
29, -187500.02, -187500.02, -187500.02, -187500.02, -187500.02, 123070.89, 122971.49, 123062.20, 0.06, 0.00, 0.00
30, -187500.02, -187500.02, -187500.02, -187500.02, -187500.02, 123073.93, 122974.51, 123065.21, 0.06, 0.00, 0.00
31, -187500.02, -187500.02, -187500.02, -187500.02, -187500.02, 123029.90, 122930.43, 123021.18, 0.06, 0.00, 0.00
32, -187500.02, -187500.02, -187500.02, -187500.02, -187500.02, 123001.38, 122901.95, 122992.68, 0.06, 0.00, 0.00
33, -187500.02, -187500.02, -187500.02, -187500.02, -187500.02, 123020.22, 122920.80, 123011.46, 0.06, 0.00, 0.00
34, -187500.02, -187500.02, -187500.02, -187500.02, -187500.02, 123032.45, 122933.05, 123023.75, 0.06, 0.00, 0.00
35, -187500.02, -187500.02, -187500.02, -187500.02, -187500.02, 122996.21, 122896.84, 122987.56, 0.06, 0.00, 0.00
36, -187500.02, -187500.02, -187500.02, -187500.02, -187500.02, 122961.32, 122861.99, 122952.77, 0.06, 0.00, 0.00
37, -187500.02, -187500.02, -187500.02, -187500.02, -187500.02, 122974.06, 122874.66, 122965.50, 0.06, 0.00, 0.00
38, -187500.02, -187500.02, -187500.02, -187500.02, -187500.02, 122993.24, 122893.89, 122984.66, 0.06, 0.00, 0.00
39, -187500.02, -187500.02, -187500.02, -187500.02, -187500.02, 122966.22, 122866.84, 122957.59, 0.06, 0.00, 0.00
40, -187500.02, -187500.02, -187500.02, -187500.02, -187500.02, 122927.59, 122828.11, 122918.88, 0.06, 0.00, 0.00
41, -187500.02, -187500.02, -187500.02, -187500.02, -187500.02, 122935.69, 122836.38, 122926.99, 0.06, 0.00, 0.00
42, -187500.02, -187500.02, -187500.02, -187500.02, -187500.02, 122957.55, 122858.33, 122948.98, 0.06, 0.00, 0.00
43, -187500.02, -187500.02, -187500.02, -187500.02, -187500.02, 122937.49, 122838.23, 122928.94, 0.06, 0.00, 0.00
44, -187500.02, -187500.02, -187500.02, -187500.02, -187500.02, 122894.34, 122794.98, 122885.77, 0.06, 0.00, 0.00
45, -187500.02, -187500.02, -187500.02, -187500.02, -187500.02, 122891.52, 122792.19, 122882.98, 0.06, 0.00, 0.00
46, -187500.02, -187500.02, -187500.02, -187500.02, -187500.02, 122915.99, 122816.62, 122907.41, 0.06, 0.00, 0.00
47, -187500.02, -187500.02, -187500.02, -187500.02, -187500.02, 122902.70, 122803.34, 122894.09, 0.06, 0.00, 0.00
48, -187500.02, -187500.02, -187500.02, -187500.02, -187500.02, 122853.77, 122754.52, 122845.25, 0.06, 0.00, 0.00
49, -187500.02, -187500.02, -187500.02, -187500.02, -187500.02, 122844.36, 122745.20, 122835.88, 0.06, 0.00, 0.00
50, -187500.02, -187500.02, -187500.02, -187500.02, -187500.02, 122867.49, 122768.16, 122858.82, 0.06, 0.00, 0.00
51, -187500.02, -187500.02, -187500.02, -187500.02, -187500.02, 122865.14, 122765.90, 122856.47, 0.06, 0.00, 0.00
52, -187500.02, -187500.02, -187500.02, -187500.02, -187500.02, 122822.45, 122723.34, 122813.91, 0.06, 0.00, 0.00
53, -187500.02, -187500.02, -187500.02, -187500.02, -187500.02, 122803.92, 122704.70, 122795.36, 0.06, 0.00, 0.00
54, -187500.02, -187500.02, -187500.02, -187500.02, -187500.02, 122827.57, 122728.38, 122819.03, 0.06, 0.00, 0.00
55, -187500.02, -187500.02, -187500.02, -187500.02, -187500.02, 122835.05, 122735.84, 122826.50, 0.06, 0.00, 0.00
56, -187500.02, -187500.02, -187500.02, -187500.02, -187500.02, 122795.70, 122696.52, 122787.18, 0.07, 0.00, 0.00
57, -187500.02, -187500.02, -187500.02, -187500.02, -187500.02, 122765.37, 122666.13, 122756.76, 0.07, 0.00, 0.00
58, -187500.02, -187500.02, -187500.02, -187500.02, -187500.02, 122786.58, 122687.29, 122778.04, 0.07, 0.00, 0.00
59, -187500.02, -187500.02, -187500.02, -187500.02, -187500.02, 122801.82, 122702.55, 122793.23, 0.07, 0.01, 0.08
60, -187500.02, -187500.02, -187500.02, -187500.02, -187500.02, 122765.52, 122666.34, 122756.98, 0.07, 0.00, 0.00
61, -187500.02, -187500.02, -187500.02, -187500.02, -187500.02, 122727.79, 122628.53, 122719.25, 0.07, 0.00, 0.00
62, -187500.02, -187500.02, -187500.02, -187500.02, -187500.02, 122736.87, 122637.55, 122728.20, 0.07, 0.00, 0.00
63, -187500.02, -187500.02, -187500.02, -187500.02, -187500.02, 122756.18, 122656.84, 122747.46, 0.07, 0.00, 0.00
64, -187500.02, -187500.02, -187500.02, -187500.02, -187500.02, 122733.00, 122633.71, 122724.33, 0.07, 0.00, 0.00
65, -187500.02, -187500.02, -187500.02, -187500.02, -187500.02, 122690.15, 122590.87, 122681.50, 0.07, 0.00, 0.00
66, -187500.02, -187500.02, -187500.02, -187500.02, -187500.02, 122692.56, 122593.26, 122683.98, 0.07, 0.00, 0.00
67, -187500.02, -187500.02, -187500.02, -187500.02, -187500.02, 122714.90, 122615.74, 122706.36, 0.07, 0.00, 0.00
68, -187500.02, -187500.02, -187500.02, -187500.02, -187500.02, 122698.24, 122598.95, 122689.64, 0.07, 0.00, 0.00
69, -187500.02, -187500.02, -187500.02, -187500.02, -187500.02, 122652.42, 122553.07, 122643.70, 0.07, 0.00, 0.00
70, -187500.02, -187500.02, -187500.02, -187500.02, -187500.02, 122651.26, 122552.04, 122642.63, 0.07, 0.00, 0.00
71, -187500.02, -187500.02, -187500.02, -187500.02, -187500.02, 122677.52, 122578.37, 122668.90, 0.07, 0.00, 0.00
72, -187500.02, -187500.02, -187500.02, -187500.02, -187500.02, 122667.20, 122568.02, 122658.59, 0.07, 0.00, 0.00
73, -187500.02, -187500.02, -187500.02, -187500.02, -187500.02, 122619.52, 122520.41, 122610.96, 0.07, 0.00, 0.00
74, -187500.02, -187500.02, -187500.02, -187500.02, -187500.02, 122605.59, 122506.51, 122597.03, 0.07, 0.00, 0.00
75, -187500.02, -187500.02, -187500.02, -187500.02, -187500.02, 122629.47, 122530.41, 122620.84, 0.07, 0.00, 0.00
76, -187500.02, -187500.02, -187500.02, -187500.02, -187500.02, 122627.77, 122528.55, 122619.12, 0.07, 0.00, 0.00
77, -187500.02, -187500.02, -187500.02, -187500.02, -187500.02, 122586.38, 122487.20, 122577.81, 0.07, 0.00, 0.00
78, -187500.02, -187500.02, -187500.02, -187500.02, -187500.02, 122566.48, 122467.23, 122557.83, 0.07, 0.00, 0.00
79, -187500.02, -187500.02, -187500.02, -187500.02, -187500.02, 122587.65, 122488.52, 122579.09, 0.07, 0.00, 0.00
80, -187500.02, -187500.02, -187500.02, -187500.02, -187500.02, 122594.93, 122495.80, 122586.35, 0.07, 0.00, 0.00
81, -187500.02, -187500.02, -187500.02, -187500.02, -187500.02, 122558.39, 122459.30, 122549.83, 0.07, 0.00, 0.00
82, -187500.02, -187500.02, -187500.02, -187500.02, -187500.02, 122530.29, 122431.14, 122521.77, 0.07, 0.00, 0.00
83, -187500.02, -187500.02, -187500.02, -187500.02, -187500.02, 122544.59, 122445.40, 122536.08, 0.07, 0.00, 0.00
84, -187500.02, -187500.02, -187500.02, -187500.02, -187500.02, 122560.78, 122461.59, 122552.22, 0.07, 0.00, 0.00
85, -187500.02, -187500.02, -187500.02, -187500.02, -187500.02, 122532.86, 122433.64, 122524.23, 0.07, 0.00, 0.00
86, -187500.02, -187500.02, -187500.02, -187500.02, -187500.02, 122494.51, 122395.42, 122486.02, 0.07, 0.00, 0.00
87, -187500.02, -187500.02, -187500.02, -187500.02, -187500.02, 122500.77, 122401.81, 122492.34, 0.07, 0.00, 0.00
88, -187500.02, -187500.02, -187500.02, -187500.02, -187500.02, 122520.32, 122421.26, 122511.83, 0.07, 0.00, 0.00
89, -187500.02, -187500.02, -187500.02, -187500.02, -187500.02, 122495.31, 122396.18, 122486.82, 0.07, 0.00, 0.00
90, -187500.02, -187500.02, -187500.02, -187500.02, -187500.02, 122451.08, 122352.02, 122442.54, 0.07, 0.00, 0.00
91, -187500.02, -187500.02, -187500.02, -187500.02, -187500.02, 122454.63, 122355.59, 122446.09, 0.07, 0.00, 0.00
92, -187500.02, -187500.02, -187500.02, -187500.02, -187500.02, 122479.28, 122380.13, 122470.70, 0.07, 0.00, 0.00
93, -187500.02, -187500.02, -187500.02, -187500.02, -187500.02, 122466.23, 122367.15, 122457.63, 0.07, 0.00, 0.00
94, -187500.02, -187500.02, -187500.02, -187500.02, -187500.02, 122420.19, 122321.13, 122411.63, 0.07, 0.00, 0.00
95, -187500.02, -187500.02, -187500.02, -187500.02, -187500.02, 122411.09, 122311.96, 122402.53, 0.07, 0.00, 0.00
96, -187500.02, -187500.02, -187500.02, -187500.02, -187500.02, 122435.88, 122336.73, 122427.27, 0.07, 0.00, 0.00
97, -187500.02, -187500.02, -187500.02, -187500.02, -187500.02, 122429.69, 122330.63, 122421.08, 0.07, 0.00, 0.00
98, -187500.02, -187500.02, -187500.02, -187500.02, -187500.02, 122385.14, 122286.01, 122376.55, 0.07, 0.00, 0.00
99, -187500.02, -187500.02, -187500.02, -187500.02, -187500.02, 122368.13, 122269.02, 122359.59, 0.07, 0.00, 0.00
100, -187500.02, -187500.02, -187500.02, -187500.02, -187500.02, 122391.02, 122291.95, 122382.55, 0.07, 0.00, 0.00
101, -187500.02, -187500.02, -187500.02, -187500.02, -187500.02, 122395.76, 122296.70, 122387.29, 0.07, 0.00, 0.00
102, -187500.02, -187500.02, -187500.02, -187500.02, -187500.02, 122356.51, 122257.42, 122347.90, 0.07, 0.00, 0.00
103, -187500.02, -187500.02, -187500.02, -187500.02, -187500.02, 122327.45, 122228.43, 122318.87, 0.07, 0.00, 0.00
104, -187500.02, -187500.02, -187500.02, -187500.02, -187500.02, 122346.49, 122247.50, 122337.95, 0.07, 0.00, 0.00
105, -187500.02, -187500.02, -187500.02, -187500.02, -187500.02, 122360.53, 122261.53, 122351.95, 0.07, 0.00, 0.00
106, -187500.02, -187500.02, -187500.02, -187500.02, -187500.02, 122325.28, 122226.22, 122316.68, 0.07, 0.00, 0.00
107, -187500.02, -187500.02, -187500.02, -187500.02, -187500.02, 122288.85, 122189.80, 122280.31, 0.07, 0.00, 0.00
108, -187500.02, -187500.02, -187500.02, -187500.02, -187500.02, 122304.34, 122205.23, 122295.76, 0.07, 0.00, 0.00
109, -187500.02, -187500.02, -187500.02, -187500.02, -187500.02, 122321.75, 122222.71, 122313.16, 0.07, 0.00, 0.00
110, -187500.02, -187500.02, -187500.02, -187500.02, -187500.02, 122291.04, 122192.02, 122282.45, 0.07, 0.00, 0.00
111, -187500.02, -187500.02, -187500.02, -187500.02, -187500.02, 122251.21, 122152.23, 122242.67, 0.06, 0.00, 0.00
112, -187500.02, -187500.02, -187500.02, -187500.02, -187500.02, 122260.38, 122161.40, 122251.86, 0.06, 0.00, 0.00
113, -187500.02, -187500.02, -187500.02, -187500.02, -187500.02, 122284.71, 122185.77, 122276.13, 0.06, 0.00, 0.00
114, -187500.02, -187500.02, -187500.02, -187500.02, -187500.02, 122264.38, 122165.38, 122255.81, 0.06, 0.00, 0.00
115, -187500.02, -187500.02, -187500.02, -187500.02, -187500.02, 122218.09, 122119.02, 122209.45, 0.06, 0.00, 0.00
116, -187500.02, -187500.02, -187500.02, -187500.02, -187500.02, 122214.55, 122115.47, 122205.84, 0.06, 0.00, 0.00
117, -187500.02, -187500.02, -187500.02, -187500.02, -187500.02, 122240.10, 122141.05, 122231.49, 0.06, 0.00, 0.00
118, -187500.02, -187500.02, -187500.02, -187500.02, -187500.02, 122229.59, 122130.60, 122221.03, 0.06, 0.00, 0.00
119, -187500.02, -187500.02, -187500.02, -187500.02, -187500.02, 122180.98, 122082.01, 122172.42, 0.06, 0.00, 0.00
120, -187500.02, -187500.02, -187500.02, -187500.02, -187500.02, 122166.61, 122067.72, 122158.11, 0.06, 0.00, 0.00
121, -187500.02, -187500.02, -187500.02, -187500.02, -187500.02, 122192.09, 122093.18, 122183.64, 0.06, 0.00, 0.00
122, -187500.02, -187500.02, -187500.02, -187500.02, -187500.02, 122195.66, 122096.76, 122187.10, 0.06, 0.00, 0.00
123, -187500.02, -187500.02, -187500.02, -187500.02, -187500.02, 122149.22, 122050.29, 122140.61, 0.06, 0.00, 0.00
124, -187500.02, -187500.02, -187500.02, -187500.02, -187500.02, 122125.99, 122027.02, 122117.39, 0.06, 0.00, 0.00
125, -187500.02, -187500.02, -187500.02, -187500.02, -187500.02, 122149.73, 122050.78, 122141.13, 0.06, 0.00, 0.00
126, -187500.02, -187500.02, -187500.02, -187500.02, -187500.02, 122156.66, 122057.69, 122147.98, 0.06, 0.00, 0.00
127, -187500.02, -187500.02, -187500.02, -187500.02, -187500.02, 122117.81, 122018.84, 122109.09, 0.06, 0.00, 0.00
128, -187500.02, -187500.02, -187500.02, -187500.02, -187500.02, 122087.41, 121988.48, 122078.81, 0.06, 0.00, 0.00
129, -187500.02, -187500.02, -187500.02, -187500.02, -187500.02, 122102.91, 122003.98, 122094.39, 0.06, 0.00, 0.00
130, -187500.02, -187500.02, -187500.02, -187500.02, -187500.02, 122117.43, 122018.46, 122108.83, 0.06, 0.00, 0.00
131, -187500.02, -187500.02, -187500.02, -187500.02, -187500.02, 122085.89, 121986.88, 122077.20, 0.06, 0.00, 0.00
132, -187500.02, -187500.02, -187500.02, -187500.02, -187500.02, 122048.41, 121949.28, 122039.70, 0.06, 0.00, 0.00
133, -187500.02, -187500.02, -187500.02, -187500.02, -187500.02, 122057.10, 121958.11, 122048.48, 0.06, 0.00, 0.00
134, -187500.02, -187500.02, -187500.02, -187500.02, -187500.02, 122078.36, 121979.48, 122069.78, 0.06, 0.00, 0.00
135, -187500.02, -187500.02, -187500.02, -187500.02, -187500.02, 122056.52, 121957.57, 122047.85, 0.06, 0.00, 0.00
136, -187500.02, -187500.02, -187500.02, -187500.02, -187500.02, 122014.39, 121915.33, 122005.72, 0.06, 0.00, 0.00
137, -187500.02, -187500.02, -187500.02, -187500.02, -187500.02, 122017.70, 121918.62, 122009.14, 0.06, 0.00, 0.00
138, -187500.02, -187500.02, -187500.02, -187500.02, -187500.02, 122042.66, 121943.65, 122034.10, 0.06, 0.00, 0.00
139, -187500.02, -187500.02, -187500.02, -187500.02, -187500.02, 122029.21, 121930.26, 122020.70, 0.06, 0.00, 0.00
140, -187500.02, -187500.02, -187500.02, -187500.02, -187500.02, 121982.05, 121883.12, 121973.42, 0.06, 0.00, 0.00
141, -187500.02, -187500.02, -187500.02, -187500.02, -187500.02, 121974.76, 121875.72, 121965.95, 0.06, 0.00, 0.00
142, -187500.02, -187500.02, -187500.02, -187500.02, -187500.02, 121998.30, 121899.30, 121989.63, 0.06, 0.00, 0.00
143, -187500.02, -187500.02, -187500.02, -187500.02, -187500.02, 121990.77, 121891.79, 121982.16, 0.06, 0.00, 0.00
144, -187500.02, -187500.02, -187500.02, -187500.02, -187500.02, 121947.07, 121848.14, 121938.55, 0.06, 0.00, 0.00
145, -187500.02, -187500.02, -187500.02, -187500.02, -187500.02, 121928.94, 121830.15, 121920.54, 0.06, 0.00, 0.00
146, -187500.02, -187500.02, -187500.02, -187500.02, -187500.02, 121951.45, 121852.54, 121942.93, 0.06, 0.00, 0.00
147, -187500.02, -187500.02, -187500.02, -187500.02, -187500.02, 121954.82, 121855.91, 121946.35, 0.06, 0.00, 0.00
148, -187500.02, -187500.02, -187500.02, -187500.02, -187500.02, 121913.30, 121814.39, 121904.69, 0.06, 0.00, 0.00
149, -187500.02, -187500.02, -187500.02, -187500.02, -187500.02, 121889.55, 121790.61, 121880.95, 0.06, 0.00, 0.00
150, -187500.02, -187500.02, -187500.02, -187500.02, -187500.02, 121909.07, 121810.16, 121900.55, 0.06, 0.00, 0.00
151, -187500.02, -187500.02, -187500.02, -187500.02, -187500.02, 121919.51, 121820.67, 121910.97, 0.06, 0.00, 0.00
152, -187500.02, -187500.02, -187500.02, -187500.02, -187500.02, 121885.65, 121786.78, 121876.99, 0.06, 0.00, 0.00
153, -187500.02, -187500.02, -187500.02, -187500.02, -187500.02, 121852.12, 121753.21, 121843.45, 0.06, 0.00, 0.00
154, -187500.02, -187500.02, -187500.02, -187500.02, -187500.02, 121866.16, 121767.34, 121857.59, 0.06, 0.00, 0.00
155, -187500.02, -187500.02, -187500.02, -187500.02, -187500.02, 121881.78, 121782.96, 121873.30, 0.06, 0.00, 0.00
156, -187500.02, -187500.02, -187500.02, -187500.02, -187500.02, 121853.86, 121754.98, 121845.30, 0.06, 0.00, 0.00
157, -187500.02, -187500.02, -187500.02, -187500.02, -187500.02, 121813.18, 121714.32, 121804.51, 0.06, 0.00, 0.00
158, -187500.02, -187500.02, -187500.02, -187500.02, -187500.02, 121821.27, 121722.48, 121812.69, 0.06, 0.00, 0.00
159, -187500.02, -187500.02, -187500.02, -187500.02, -187500.02, 121845.13, 121746.23, 121836.43, 0.06, 0.00, 0.00
160, -187500.02, -187500.02, -187500.02, -187500.02, -187500.02, 121823.55, 121724.76, 121814.95, 0.06, 0.00, 0.00
161, -187500.02, -187500.02, -187500.02, -187500.02, -187500.02, 121777.17, 121678.27, 121768.61, 0.06, 0.00, 0.00
162, -187500.02, -187500.02, -187500.02, -187500.02, -187500.02, 121773.93, 121674.98, 121765.35, 0.06, 0.00, 0.00
163, -187500.02, -187500.02, -187500.02, -187500.02, -187500.02, 121799.08, 121700.13, 121790.47, 0.06, 0.00, 0.00
164, -187500.02, -187500.02, -187500.02, -187500.02, -187500.02, 121787.07, 121688.23, 121778.47, 0.06, 0.00, 0.00
165, -187500.02, -187500.02, -187500.02, -187500.02, -187500.02, 121741.05, 121642.19, 121732.42, 0.06, 0.00, 0.00
166, -187500.02, -187500.02, -187500.02, -187500.02, -187500.02, 121730.63, 121631.73, 121722.03, 0.06, 0.00, 0.00
167, -187500.02, -187500.02, -187500.02, -187500.02, -187500.02, 121757.46, 121658.57, 121748.85, 0.06, 0.00, 0.00
168, -187500.02, -187500.02, -187500.02, -187500.02, -187500.02, 121757.86, 121659.11, 121749.39, 0.06, 0.00, 0.00
169, -187500.02, -187500.02, -187500.02, -187500.02, -187500.02, 121713.36, 121614.56, 121704.77, 0.06, 0.00, 0.00
170, -187500.02, -187500.02, -187500.02, -187500.02, -187500.02, 121693.80, 121594.85, 121685.04, 0.06, 0.00, 0.00
171, -187500.02, -187500.02, -187500.02, -187500.02, -187500.02, 121717.38, 121618.48, 121708.71, 0.06, 0.00, 0.00
172, -187500.02, -187500.02, -187500.02, -187500.02, -187500.02, 121723.70, 121624.95, 121715.19, 0.06, 0.00, 0.00
173, -187500.02, -187500.02, -187500.02, -187500.02, -187500.02, 121681.82, 121583.12, 121673.17, 0.06, 0.00, 0.00
174, -187500.02, -187500.02, -187500.02, -187500.02, -187500.02, 121650.02, 121551.27, 121641.41, 0.06, 0.00, 0.00
175, -187500.02, -187500.02, -187500.02, -187500.02, -187500.02, 121669.21, 121570.38, 121660.63, 0.06, 0.00, 0.00
176, -187500.02, -187500.02, -187500.02, -187500.02, -187500.02, 121681.38, 121582.55, 121672.84, 0.06, 0.00, 0.00
177, -187500.02, -187500.02, -187500.02, -187500.02, -187500.02, 121647.66, 121548.91, 121639.06, 0.06, 0.00, 0.00
178, -187500.02, -187500.02, -187500.02, -187500.02, -187500.02, 121609.73, 121510.94, 121601.11, 0.06, 0.00, 0.00
179, -187500.02, -187500.02, -187500.02, -187500.02, -187500.02, 121621.65, 121522.81, 121613.02, 0.06, 0.00, 0.00
180, -187500.02, -187500.02, -187500.02, -187500.02, -187500.02, 121641.19, 121542.39, 121632.65, 0.06, 0.00, 0.00
181, -187500.02, -187500.02, -187500.02, -187500.02, -187500.02, 121614.88, 121516.15, 121606.38, 0.06, 0.00, 0.00
182, -187500.02, -187500.02, -187500.02, -187500.02, -187500.02, 121569.59, 121470.91, 121561.10, 0.06, 0.00, 0.00
183, -187500.02, -187500.02, -187500.02, -187500.02, -187500.02, 121572.88, 121474.15, 121564.23, 0.06, 0.00, 0.00
184, -187500.02, -187500.02, -187500.02, -187500.02, -187500.02, 121598.13, 121499.36, 121589.51, 0.06, 0.00, 0.00
185, -187500.02, -187500.02, -187500.02, -187500.02, -187500.02, 121580.37, 121481.59, 121571.88, 0.06, 0.00, 0.00
186, -187500.02, -187500.02, -187500.02, -187500.02, -187500.02, 121536.98, 121438.19, 121528.40, 0.06, 0.00, 0.00
187, -187500.02, -187500.02, -187500.02, -187500.02, -187500.02, 121534.84, 121435.99, 121526.23, 0.06, 0.00, 0.00
188, -187500.02, -187500.02, -187500.02, -187500.02, -187500.02, 121557.37, 121458.55, 121548.78, 0.06, 0.00, 0.00
189, -187500.02, -187500.02, -187500.02, -187500.02, -187500.02, 121547.71, 121448.84, 121539.13, 0.06, 0.00, 0.00
190, -187500.02, -187500.02, -187500.02, -187500.02, -187500.02, 121501.17, 121402.36, 121492.59, 0.06, 0.00, 0.00
191, -187500.02, -187500.02, -187500.02, -187500.02, -187500.02, 121487.23, 121388.54, 121478.66, 0.06, 0.00, 0.00
192, -187500.02, -187500.02, -187500.02, -187500.02, -187500.02, 121511.25, 121412.64, 121502.72, 0.06, 0.00, 0.00
193, -187500.02, -187500.02, -187500.02, -187500.02, -187500.02, 121511.08, 121412.39, 121502.52, 0.06, 0.00, 0.00
194, -187500.02, -187500.02, -187500.02, -187500.02, -187500.02, 121468.63, 121369.84, 121460.00, 0.06, 0.00, 0.00
195, -187500.02, -187500.02, -187500.02, -187500.02, -187500.02, 121445.92, 121347.30, 121437.41, 0.06, 0.00, 0.00
196, -187500.02, -187500.02, -187500.02, -187500.02, -187500.02, 121468.45, 121369.77, 121459.95, 0.06, 0.00, 0.00
197, -187500.02, -187500.02, -187500.02, -187500.02, -187500.02, 121478.27, 121379.52, 121469.75, 0.06, 0.00, 0.00
198, -187500.02, -187500.02, -187500.02, -187500.02, -187500.02, 121441.00, 121342.27, 121432.51, 0.06, 0.00, 0.00
199, -187500.02, -187500.02, -187500.02, -187500.02, -187500.02, 121408.70, 121309.95, 121400.19, 0.06, 0.00, 0.00
200, -187500.02, -187500.02, -187500.02, -187500.02, -187500.02, 121423.03, 121324.35, 121414.49, 0.06, 0.00, 0.00
201, -187500.02, -187500.02, -187500.02, -187500.02, -187500.02, 121441.72, 121343.05, 121433.02, 0.06, 0.00, 0.00
202, -187500.02, -187500.02, -187500.02, -187500.02, -187500.02, 121410.94, 121312.30, 121402.42, 0.06, 0.00, 0.00
203, -187500.02, -187500.02, -187500.02, -187500.02, -187500.02, 121372.20, 121273.54, 121363.69, 0.06, 0.00, 0.00
204, -187500.02, -187500.02, -187500.02, -187500.02, -187500.02, 121379.67, 121281.03, 121371.11, 0.06, 0.00, 0.00
205, -187500.02, -187500.02, -187500.02, -187500.02, -187500.02, 121399.27, 121300.59, 121390.73, 0.06, 0.00, 0.00
206, -187500.02, -187500.02, -187500.02, -187500.02, -187500.02, 121374.62, 121275.94, 121366.05, 0.06, 0.00, 0.00
207, -187500.02, -187500.02, -187500.02, -187500.02, -187500.02, 121333.04, 121234.45, 121324.57, 0.06, 0.00, 0.00
208, -187500.02, -187500.02, -187500.02, -187500.02, -187500.02, 121334.97, 121236.30, 121326.45, 0.06, 0.00, 0.00
209, -187500.02, -187500.02, -187500.02, -187500.02, -187500.02, 121360.45, 121261.85, 121352.04, 0.06, 0.00, 0.00
210, -187500.02, -187500.02, -187500.02, -187500.02, -187500.02, 121348.11, 121249.63, 121339.75, 0.06, 0.00, 0.00
211, -187500.02, -187500.02, -187500.02, -187500.02, -187500.02, 121303.16, 121204.72, 121294.82, 0.06, 0.00, 0.00
212, -187500.02, -187500.02, -187500.02, -187500.02, -187500.02, 121296.41, 121197.84, 121287.96, 0.06, 0.00, 0.00
213, -187500.02, -187500.02, -187500.02, -187500.02, -187500.02, 121320.19, 121221.55, 121311.79, 0.07, 0.00, 0.00
214, -187500.02, -187500.02, -187500.02, -187500.02, -187500.02, 121314.70, 121215.95, 121306.13, 0.07, 0.00, 0.00
215, -187500.02, -187500.02, -187500.02, -187500.02, -187500.02, 121270.28, 121171.66, 121261.74, 0.07, 0.00, 0.00
216, -187500.02, -187500.02, -187500.02, -187500.02, -187500.02, 121252.58, 121153.96, 121244.09, 0.07, 0.01, 0.08
217, -187500.02, -187500.02, -187500.02, -187500.02, -187500.02, 121275.66, 121177.14, 121267.27, 0.07, 0.00, 0.00
218, -187500.02, -187500.02, -187500.02, -187500.02, -187500.02, 121281.57, 121183.02, 121273.12, 0.07, 0.00, 0.00
219, -187500.02, -187500.02, -187500.02, -187500.02, -187500.02, 121240.15, 121141.60, 121231.61, 0.07, 0.00, 0.00
220, -187500.02, -187500.02, -187500.02, -187500.02, -187500.02, 121215.88, 121117.37, 121207.34, 0.07, 0.00, 0.00
221, -187500.02, -187500.02, -187500.02, -187500.02, -187500.02, 121232.39, 121133.76, 121223.85, 0.07, 0.00, 0.00
222, -187500.02, -187500.02, -187500.02, -187500.02, -187500.02, 121241.52, 121142.83, 121232.93, 0.07, 0.00, 0.00
223, -187500.02, -187500.02, -187500.02, -187500.02, -187500.02, 121206.63, 121108.03, 121198.11, 0.07, 0.00, 0.00
224, -187500.02, -187500.02, -187500.02, -187500.02, -187500.02, 121170.32, 121071.86, 121161.85, 0.07, 0.00, 0.00
225, -187500.02, -187500.02, -187500.02, -187500.02, -187500.02, 121183.40, 121084.88, 121174.91, 0.07, 0.00, 0.00
226, -187500.02, -187500.02, -187500.02, -187500.02, -187500.02, 121203.76, 121105.16, 121195.16, 0.07, 0.00, 0.00
227, -187500.02, -187500.02, -187500.02, -187500.02, -187500.02, 121177.19, 121078.73, 121168.71, 0.07, 0.00, 0.00
228, -187500.02, -187500.02, -187500.02, -187500.02, -187500.02, 121134.70, 121036.16, 121126.18, 0.07, 0.00, 0.00
229, -187500.02, -187500.02, -187500.02, -187500.02, -187500.02, 121142.00, 121043.41, 121133.40, 0.07, 0.00, 0.00
230, -187500.02, -187500.02, -187500.02, -187500.02, -187500.02, 121164.06, 121065.49, 121155.41, 0.07, 0.00, 0.00
231, -187500.02, -187500.02, -187500.02, -187500.02, -187500.02, 121143.21, 121044.59, 121134.67, 0.07, 0.00, 0.00
232, -187500.02, -187500.02, -187500.02, -187500.02, -187500.02, 121094.23, 120995.80, 121085.84, 0.07, 0.00, 0.00
233, -187500.02, -187500.02, -187500.02, -187500.02, -187500.02, 121091.04, 120992.65, 121082.66, 0.07, 0.00, 0.00
234, -187500.02, -187500.02, -187500.02, -187500.02, -187500.02, 121119.72, 121021.21, 121111.25, 0.07, 0.00, 0.00
235, -187500.02, -187500.02, -187500.02, -187500.02, -187500.02, 121111.91, 121013.32, 121103.34, 0.07, 0.00, 0.00
236, -187500.02, -187500.02, -187500.02, -187500.02, -187500.02, 121065.23, 120966.81, 121056.69, 0.07, 0.00, 0.00
237, -187500.02, -187500.02, -187500.02, -187500.02, -187500.02, 121050.41, 120951.99, 121041.91, 0.07, 0.00, 0.00
238, -187500.02, -187500.02, -187500.02, -187500.02, -187500.02, 121074.10, 120975.70, 121065.72, 0.07, 0.00, 0.00
239, -187500.02, -187500.02, -187500.02, -187500.02, -187500.02, 121072.76, 120974.37, 121064.33, 0.07, 0.00, 0.00
240, -187500.02, -187500.02, -187500.02, -187500.02, -187500.02, 121028.34, 120929.95, 121019.90, 0.07, 0.00, 0.00
241, -187500.02, -187500.02, -187500.02, -187500.02, -187500.02, 121006.44, 120908.05, 120997.97, 0.07, 0.00, 0.00
242, -187500.02, -187500.02, -187500.02, -187500.02, -187500.02, 121028.68, 120930.27, 121020.16, 0.07, 0.00, 0.00
243, -187500.02, -187500.02, -187500.02, -187500.02, -187500.02, 121037.22, 120938.71, 121028.63, 0.07, 0.00, 0.00
244, -187500.02, -187500.02, -187500.02, -187500.02, -187500.02, 120999.40, 120900.89, 120990.84, 0.07, 0.00, 0.00
245, -187500.02, -187500.02, -187500.02, -187500.02, -187500.02, 120970.38, 120871.93, 120961.91, 0.07, 0.00, 0.00
246, -187500.02, -187500.02, -187500.02, -187500.02, -187500.02, 120986.08, 120887.66, 120977.65, 0.07, 0.00, 0.00
247, -187500.02, -187500.02, -187500.02, -187500.02, -187500.02, 121000.12, 120901.68, 120991.69, 0.07, 0.00, 0.00
248, -187500.02, -187500.02, -187500.02, -187500.02, -187500.02, 120965.49, 120867.08, 120957.00, 0.07, 0.00, 0.00
249, -187500.02, -187500.02, -187500.02, -187500.02, -187500.02, 120924.90, 120826.46, 120916.41, 0.07, 0.00, 0.00
250, -187500.02, -187500.02, -187500.02, -187500.02, -187500.02, 120938.11, 120839.67, 120929.51, 0.07, 0.00, 0.00
251, -187500.02, -187500.02, -187500.02, -187500.02, -187500.02, 120964.09, 120865.67, 120955.59, 0.07, 0.00, 0.00
252, -187500.02, -187500.02, -187500.02, -187500.02, -187500.02, 120939.95, 120841.51, 120931.49, 0.07, 0.00, 0.00
253, -187500.02, -187500.02, -187500.02, -187500.02, -187500.02, 120893.61, 120795.17, 120885.13, 0.07, 0.00, 0.00
254, -187500.02, -187500.02, -187500.02, -187500.02, -187500.02, 120895.10, 120796.60, 120886.57, 0.07, 0.00, 0.00
255, -187500.02, -187500.02, -187500.02, -187500.02, -187500.02, 120920.54, 120822.09, 120912.02, 0.07, 0.00, 0.00
0, -187500.02, -187500.02, -187500.02, -187500.02, -187500.02, 120905.45, 120807.06, 120897.05, 0.07, 0.00, 0.00
1, -187500.02, -187500.02, -187500.02, -187500.02, -187500.02, 120858.25, 120759.79, 120849.66, 0.07, 0.00, 0.00
2, -187500.02, -187500.02, -187500.02, -187500.02, -187500.02, 120850.73, 120752.34, 120842.27, 0.07, 0.00, 0.00
3, -187500.02, -187500.02, -187500.02, -187500.02, -187500.02, 120874.88, 120776.53, 120866.43, 0.07, 0.00, 0.00
4, -187500.02, -187500.02, -187500.02, -187500.02, -187500.02, 120869.53, 120771.19, 120861.13, 0.07, 0.00, 0.00
5, -187500.02, -187500.02, -187500.02, -187500.02, -187500.02, 120825.23, 120726.88, 120816.83, 0.07, 0.00, 0.00
6, -187500.02, -187500.02, -187500.02, -187500.02, -187500.02, 120808.85, 120710.48, 120800.47, 0.07, 0.00, 0.00
7, -187500.02, -187500.02, -187500.02, -187500.02, -187500.02, 120834.33, 120735.98, 120825.95, 0.06, 0.00, 0.00
8, -187500.02, -187500.02, -187500.02, -187500.02, -187500.02, 120836.03, 120737.66, 120827.58, 0.06, 0.00, 0.00
9, -187500.02, -187500.02, -187500.02, -187500.02, -187500.02, 120792.69, 120694.32, 120784.15, 0.06, 0.00, 0.00
10, -187500.02, -187500.02, -187500.02, -187500.02, -187500.02, 120767.56, 120669.20, 120759.12, 0.06, 0.00, 0.00
11, -187500.02, -187500.02, -187500.02, -187500.02, -187500.02, 120790.03, 120691.68, 120781.63, 0.06, 0.00, 0.00
12, -187500.02, -187500.02, -187500.02, -187500.02, -187500.02, 120799.41, 120701.02, 120790.97, 0.06, 0.00, 0.00
13, -187500.02, -187500.02, -187500.02, -187500.02, -187500.02, 120762.47, 120664.01, 120753.98, 0.06, 0.00, 0.00
14, -187500.02, -187500.02, -187500.02, -187500.02, -187500.02, 120728.72, 120630.35, 120720.29, 0.06, 0.00, 0.00
15, -187500.02, -187500.02, -187500.02, -187500.02, -187500.02, 120744.19, 120645.84, 120735.70, 0.06, 0.00, 0.00
16, -187500.02, -187500.02, -187500.02, -187500.02, -187500.02, 120762.70, 120664.46, 120754.20, 0.06, 0.00, 0.00
17, -187500.02, -187500.02, -187500.02, -187500.02, -187500.02, 120732.18, 120633.88, 120723.65, 0.06, 0.00, 0.00
18, -187500.02, -187500.02, -187500.02, -187500.02, -187500.02, 120689.16, 120590.88, 120680.66, 0.06, 0.00, 0.00
19, -187500.02, -187500.02, -187500.02, -187500.02, -187500.02, 120698.68, 120600.45, 120690.23, 0.06, 0.00, 0.00
20, -187500.02, -187500.02, -187500.02, -187500.02, -187500.02, 120721.73, 120623.40, 120713.19, 0.06, 0.00, 0.00
21, -187500.02, -187500.02, -187500.02, -187500.02, -187500.02, 120702.08, 120603.82, 120693.67, 0.06, 0.00, 0.00
22, -187500.02, -187500.02, -187500.02, -187500.02, -187500.02, 120657.08, 120558.76, 120648.63, 0.06, 0.00, 0.00
23, -187500.02, -187500.02, -187500.02, -187500.02, -187500.02, 120654.63, 120556.34, 120646.17, 0.06, 0.00, 0.00
24, -187500.02, -187500.02, -187500.02, -187500.02, -187500.02, 120677.66, 120579.48, 120669.27, 0.06, 0.00, 0.00
25, -187500.02, -187500.02, -187500.02, -187500.02, -187500.02, 120664.62, 120566.38, 120656.19, 0.06, 0.00, 0.00
26, -187500.02, -187500.02, -187500.02, -187500.02, -187500.02, 120616.58, 120518.27, 120608.18, 0.06, 0.00, 0.00
27, -187500.02, -187500.02, -187500.02, -187500.02, -187500.02, 120605.41, 120507.05, 120597.00, 0.06, 0.00, 0.00
28, -187500.02, -187500.02, -187500.02, -187500.02, -187500.02, 120630.15, 120531.95, 120621.77, 0.06, 0.00, 0.00
29, -187500.02, -187500.02, -187500.02, -187500.02, -187500.02, 120627.64, 120529.38, 120619.33, 0.06, 0.00, 0.00
30, -187500.02, -187500.02, -187500.02, -187500.02, -187500.02, 120582.00, 120483.74, 120573.66, 0.06, 0.00, 0.00
31, -187500.02, -187500.02, -187500.02, -187500.02, -187500.02, 120563.14, 120464.88, 120554.71, 0.06, 0.00, 0.00
32, -187500.02, -187500.02, -187500.02, -187500.02, -187500.02, 120587.19, 120488.93, 120578.76, 0.06, 0.00, 0.00
33, -187500.02, -187500.02, -187500.02, -187500.02, -187500.02, 120592.24, 120493.94, 120583.73, 0.06, 0.00, 0.00
34, -187500.02, -187500.02, -187500.02, -187500.02, -187500.02, 120552.25, 120453.91, 120543.80, 0.06, 0.00, 0.00
35, -187500.02, -187500.02, -187500.02, -187500.02, -187500.02, 120526.73, 120428.42, 120518.21, 0.06, 0.00, 0.00
36, -187500.02, -187500.02, -187500.02, -187500.02, -187500.02, 120544.95, 120446.64, 120536.45, 0.06, 0.00, 0.00
37, -187500.02, -187500.02, -187500.02, -187500.02, -187500.02, 120560.77, 120462.47, 120552.32, 0.06, 0.00, 0.00
38, -187500.02, -187500.02, -187500.02, -187500.02, -187500.02, 120530.02, 120431.77, 120521.67, 0.06, 0.00, 0.00
39, -187500.02, -187500.02, -187500.02, -187500.02, -187500.02, 120489.73, 120391.38, 120481.35, 0.06, 0.00, 0.00
40, -187500.02, -187500.02, -187500.02, -187500.02, -187500.02, 120501.45, 120403.16, 120493.02, 0.06, 0.00, 0.00
41, -187500.02, -187500.02, -187500.02, -187500.02, -187500.02, 120520.65, 120422.32, 120512.11, 0.06, 0.00, 0.00
42, -187500.02, -187500.02, -187500.02, -187500.02, -187500.02, 120492.95, 120394.63, 120484.48, 0.06, 0.00, 0.00
43, -187500.02, -187500.02, -187500.02, -187500.02, -187500.02, 120447.71, 120349.41, 120439.33, 0.06, 0.00, 0.00
44, -187500.02, -187500.02, -187500.02, -187500.02, -187500.02, 120450.77, 120352.43, 120442.30, 0.06, 0.00, 0.00
45, -187500.02, -187500.02, -187500.02, -187500.02, -187500.02, 120476.63, 120378.29, 120468.26, 0.06, 0.00, 0.00
46, -187500.02, -187500.02, -187500.02, -187500.02, -187500.02, 120459.52, 120361.23, 120451.11, 0.06, 0.00, 0.00
47, -187500.02, -187500.02, -187500.02, -187500.02, -187500.02, 120413.09, 120314.83, 120404.75, 0.06, 0.00, 0.00
48, -187500.02, -187500.02, -187500.02, -187500.02, -187500.02, 120410.05, 120311.91, 120401.83, 0.06, 0.00, 0.00
49, -187500.02, -187500.02, -187500.02, -187500.02, -187500.02, 120438.75, 120340.52, 120430.39, 0.06, 0.00, 0.00
50, -187500.02, -187500.02, -187500.02, -187500.02, -187500.02, 120430.10, 120331.80, 120421.67, 0.06, 0.00, 0.00
51, -187500.02, -187500.02, -187500.02, -187500.02, -187500.02, 120385.75, 120287.48, 120377.35, 0.06, 0.00, 0.00
52, -187500.02, -187500.02, -187500.02, -187500.02, -187500.02, 120372.09, 120273.70, 120363.72, 0.06, 0.00, 0.00
53, -187500.02, -187500.02, -187500.02, -187500.02, -187500.02, 120395.34, 120296.97, 120386.89, 0.06, 0.00, 0.00
54, -187500.02, -187500.02, -187500.02, -187500.02, -187500.02, 120396.52, 120298.20, 120388.13, 0.06, 0.00, 0.00
55, -187500.02, -187500.02, -187500.02, -187500.02, -187500.02, 120352.90, 120254.73, 120344.56, 0.06, 0.00, 0.00
56, -187500.02, -187500.02, -187500.02, -187500.02, -187500.02, 120328.58, 120230.39, 120320.24, 0.06, 0.00, 0.00
57, -187500.02, -187500.02, -187500.02, -187500.02, -187500.02, 120348.78, 120250.62, 120340.45, 0.06, 0.00, 0.00
58, -187500.02, -187500.02, -187500.02, -187500.02, -187500.02, 120358.87, 120260.70, 120350.53, 0.06, 0.00, 0.00
59, -187500.02, -187500.02, -187500.02, -187500.02, -187500.02, 120319.13, 120220.95, 120310.85, 0.06, 0.00, 0.00
60, -187500.02, -187500.02, -187500.02, -187500.02, -187500.02, 120285.46, 120187.31, 120277.19, 0.06, 0.00, 0.00
61, -187500.02, -187500.02, -187500.02, -187500.02, -187500.02, 120301.80, 120203.66, 120293.51, 0.06, 0.00, 0.00
62, -187500.02, -187500.02, -187500.02, -187500.02, -187500.02, 120320.29, 120221.96, 120311.77, 0.06, 0.00, 0.00
63, -187500.02, -187500.02, -187500.02, -187500.02, -187500.02, 120287.65, 120189.39, 120279.18, 0.06, 0.00, 0.00
64, -187500.02, -187500.02, -187500.02, -187500.02, -187500.02, 120245.52, 120147.40, 120237.09, 0.06, 0.00, 0.00
65, -187500.02, -187500.02, -187500.02, -187500.02, -187500.02, 120259.40, 120161.32, 120251.02, 0.06, 0.00, 0.00
66, -187500.02, -187500.02, -187500.02, -187500.02, -187500.02, 120281.80, 120183.56, 120273.41, 0.06, 0.00, 0.00
67, -187500.02, -187500.02, -187500.02, -187500.02, -187500.02, 120259.40, 120161.19, 120251.04, 0.06, 0.00, 0.00
68, -187500.02, -187500.02, -187500.02, -187500.02, -187500.02, 120213.47, 120115.25, 120205.17, 0.06, 0.00, 0.00
69, -187500.02, -187500.02, -187500.02, -187500.02, -187500.02, 120214.95, 120116.68, 120206.52, 0.06, 0.00, 0.00
70, -187500.02, -187500.02, -187500.02, -187500.02, -187500.02, 120238.81, 120140.58, 120230.37, 0.06, 0.00, 0.00
71, -187500.02, -187500.02, -187500.02, -187500.02, -187500.02, 120226.77, 120128.53, 120218.38, 0.06, 0.00, 0.00
72, -187500.02, -187500.02, -187500.02, -187500.02, -187500.02, 120181.75, 120083.54, 120173.34, 0.06, 0.00, 0.00
73, -187500.02, -187500.02, -187500.02, -187500.02, -187500.02, 120173.66, 120075.42, 120165.16, 0.06, 0.00, 0.00
74, -187500.02, -187500.02, -187500.02, -187500.02, -187500.02, 120200.13, 120101.87, 120191.59, 0.06, 0.00, 0.00
75, -187500.02, -187500.02, -187500.02, -187500.02, -187500.02, 120195.85, 120097.69, 120187.36, 0.06, 0.00, 0.00
76, -187500.02, -187500.02, -187500.02, -187500.02, -187500.02, 120148.27, 120050.08, 120139.91, 0.06, 0.00, 0.00
77, -187500.02, -187500.02, -187500.02, -187500.02, -187500.02, 120129.96, 120031.75, 120121.55, 0.06, 0.00, 0.00
78, -187500.02, -187500.02, -187500.02, -187500.02, -187500.02, 120152.20, 120054.03, 120143.82, 0.06, 0.00, 0.00
79, -187500.02, -187500.02, -187500.02, -187500.02, -187500.02, 120157.07, 120058.97, 120148.69, 0.06, 0.00, 0.00
80, -187500.02, -187500.02, -187500.02, -187500.02, -187500.02, 120114.67, 120016.64, 120106.36, 0.06, 0.00, 0.00
81, -187500.02, -187500.02, -187500.02, -187500.02, -187500.02, 120089.88, 119991.85, 120081.55, 0.06, 0.00, 0.00
82, -187500.02, -187500.02, -187500.02, -187500.02, -187500.02, 120109.62, 120011.54, 120101.26, 0.06, 0.00, 0.00
83, -187500.02, -187500.02, -187500.02, -187500.02, -187500.02, 120121.29, 120023.19, 120112.91, 0.06, 0.00, 0.00
84, -187500.02, -187500.02, -187500.02, -187500.02, -187500.02, 120084.45, 119986.46, 120076.09, 0.06, 0.00, 0.00
85, -187500.02, -187500.02, -187500.02, -187500.02, -187500.02, 120050.84, 119952.82, 120042.54, 0.06, 0.00, 0.00
86, -187500.02, -187500.02, -187500.02, -187500.02, -187500.02, 120067.11, 119968.98, 120058.70, 0.06, 0.00, 0.00
87, -187500.02, -187500.02, -187500.02, -187500.02, -187500.02, 120085.08, 119987.02, 120076.77, 0.06, 0.00, 0.00
88, -187500.02, -187500.02, -187500.02, -187500.02, -187500.02, 120056.11, 119958.08, 120047.84, 0.06, 0.00, 0.00
89, -187500.02, -187500.02, -187500.02, -187500.02, -187500.02, 120013.66, 119915.61, 120005.33, 0.06, 0.00, 0.00
90, -187500.02, -187500.02, -187500.02, -187500.02, -187500.02, 120018.38, 119920.28, 120009.95, 0.06, 0.00, 0.00
91, -187500.02, -187500.02, -187500.02, -187500.02, -187500.02, 120042.19, 119944.02, 120033.80, 0.06, 0.00, 0.00
92, -187500.02, -187500.02, -187500.02, -187500.02, -187500.02, 120024.98, 119926.88, 120016.66, 0.06, 0.00, 0.00
93, -187500.02, -187500.02, -187500.02, -187500.02, -187500.02, 119979.33, 119881.27, 119971.02, 0.06, 0.00, 0.00
94, -187500.02, -187500.02, -187500.02, -187500.02, -187500.02, 119977.30, 119879.15, 119968.98, 0.06, 0.00, 0.00
95, -187500.02, -187500.02, -187500.02, -187500.02, -187500.02, 120000.01, 119901.81, 119991.63, 0.06, 0.00, 0.00
96, -187500.02, -187500.02, -187500.02, -187500.02, -187500.02, 119992.25, 119894.17, 119983.96, 0.06, 0.00, 0.00
97, -187500.02, -187500.02, -187500.02, -187500.02, -187500.02, 119947.55, 119849.55, 119939.32, 0.06, 0.00, 0.00
98, -187500.02, -187500.02, -187500.02, -187500.02, -187500.02, 119936.38, 119838.34, 119928.03, 0.06, 0.00, 0.00
99, -187500.02, -187500.02, -187500.02, -187500.02, -187500.02, 119962.28, 119864.20, 119953.88, 0.06, 0.00, 0.00
100, -187500.02, -187500.02, -187500.02, -187500.02, -187500.02, 119961.98, 119863.88, 119953.56, 0.06, 0.00, 0.00
101, -187500.02, -187500.02, -187500.02, -187500.02, -187500.02, 119916.05, 119817.95, 119907.67, 0.06, 0.00, 0.00
102, -187500.02, -187500.02, -187500.02, -187500.02, -187500.02, 119891.53, 119793.45, 119883.20, 0.06, 0.00, 0.00
103, -187500.02, -187500.02, -187500.02, -187500.02, -187500.02, 119911.78, 119813.73, 119903.41, 0.06, 0.00, 0.00
104, -187500.02, -187500.02, -187500.02, -187500.02, -187500.02, 119919.20, 119821.17, 119910.87, 0.06, 0.00, 0.00
105, -187500.02, -187500.02, -187500.02, -187500.02, -187500.02, 119880.42, 119782.48, 119872.22, 0.06, 0.00, 0.00
106, -187500.02, -187500.02, -187500.02, -187500.02, -187500.02, 119850.79, 119752.80, 119842.47, 0.06, 0.00, 0.00
107, -187500.02, -187500.02, -187500.02, -187500.02, -187500.02, 119866.95, 119768.96, 119858.59, 0.06, 0.00, 0.00
108, -187500.02, -187500.02, -187500.02, -187500.02, -187500.02, 119880.49, 119782.52, 119872.20, 0.06, 0.00, 0.00
109, -187500.02, -187500.02, -187500.02, -187500.02, -187500.02, 119847.79, 119749.80, 119839.59, 0.06, 0.00, 0.00
110, -187500.02, -187500.02, -187500.02, -187500.02, -187500.02, 119809.88, 119712.01, 119801.68, 0.06, 0.00, 0.00
111, -187500.02, -187500.02, -187500.02, -187500.02, -187500.02, 119820.63, 119722.69, 119812.34, 0.06, 0.00, 0.00
112, -187500.02, -187500.02, -187500.02, -187500.02, -187500.02, 119841.65, 119743.61, 119833.27, 0.06, 0.00, 0.00
113, -187500.02, -187500.02, -187500.02, -187500.02, -187500.02, 119817.13, 119719.07, 119808.79, 0.07, 0.00, 0.00
114, -187500.02, -187500.02, -187500.02, -187500.02, -187500.02, 119772.58, 119674.61, 119764.20, 0.07, 0.00, 0.00
115, -187500.02, -187500.02, -187500.02, -187500.02, -187500.02, 119774.63, 119676.80, 119766.30, 0.07, 0.01, 0.08
116, -187500.02, -187500.02, -187500.02, -187500.02, -187500.02, 119800.01, 119702.05, 119791.66, 0.07, 0.00, 0.00
117, -187500.02, -187500.02, -187500.02, -187500.02, -187500.02, 119783.02, 119685.01, 119774.57, 0.07, 0.00, 0.00
118, -187500.02, -187500.02, -187500.02, -187500.02, -187500.02, 119733.80, 119635.88, 119725.39, 0.07, 0.00, 0.00
119, -187500.02, -187500.02, -187500.02, -187500.02, -187500.02, 119728.73, 119630.91, 119720.43, 0.07, 0.00, 0.00
120, -187500.02, -187500.02, -187500.02, -187500.02, -187500.02, 119756.13, 119658.14, 119747.81, 0.07, 0.00, 0.00
121, -187500.02, -187500.02, -187500.02, -187500.02, -187500.02, 119750.96, 119653.02, 119742.63, 0.07, 0.00, 0.00
122, -187500.02, -187500.02, -187500.02, -187500.02, -187500.02, 119707.65, 119609.79, 119699.35, 0.07, 0.00, 0.00
123, -187500.02, -187500.02, -187500.02, -187500.02, -187500.02, 119691.48, 119593.63, 119683.13, 0.07, 0.00, 0.00
124, -187500.02, -187500.02, -187500.02, -187500.02, -187500.02, 119712.34, 119614.40, 119703.98, 0.07, 0.00, 0.00
125, -187500.02, -187500.02, -187500.02, -187500.02, -187500.02, 119716.30, 119618.35, 119707.98, 0.07, 0.00, 0.00
126, -187500.02, -187500.02, -187500.02, -187500.02, -187500.02, 119673.27, 119575.37, 119664.93, 0.07, 0.00, 0.00
127, -187500.02, -187500.02, -187500.02, -187500.02, -187500.02, 119649.27, 119551.41, 119641.02, 0.07, 0.00, 0.00
128, -187500.02, -187500.02, -187500.02, -187500.02, -187500.02, 119672.95, 119575.10, 119664.71, 0.07, 0.00, 0.00
129, -187500.02, -187500.02, -187500.02, -187500.02, -187500.02, 119682.95, 119585.02, 119674.63, 0.07, 0.00, 0.00
130, -187500.02, -187500.02, -187500.02, -187500.02, -187500.02, 119646.29, 119548.39, 119638.06, 0.07, 0.00, 0.00
131, -187500.02, -187500.02, -187500.02, -187500.02, -187500.02, 119612.49, 119514.53, 119604.23, 0.07, 0.00, 0.00
132, -187500.02, -187500.02, -187500.02, -187500.02, -187500.02, 119627.00, 119529.08, 119618.69, 0.07, 0.00, 0.00
133, -187500.02, -187500.02, -187500.02, -187500.02, -187500.02, 119643.99, 119546.13, 119635.77, 0.07, 0.00, 0.00
134, -187500.02, -187500.02, -187500.02, -187500.02, -187500.02, 119613.84, 119515.89, 119605.50, 0.07, 0.00, 0.00
135, -187500.02, -187500.02, -187500.02, -187500.02, -187500.02, 119573.91, 119475.97, 119565.69, 0.07, 0.00, 0.00
136, -187500.02, -187500.02, -187500.02, -187500.02, -187500.02, 119582.01, 119484.02, 119573.72, 0.07, 0.00, 0.00
137, -187500.02, -187500.02, -187500.02, -187500.02, -187500.02, 119606.17, 119508.23, 119597.90, 0.07, 0.00, 0.00
138, -187500.02, -187500.02, -187500.02, -187500.02, -187500.02, 119583.41, 119485.42, 119575.16, 0.07, 0.00, 0.00
139, -187500.02, -187500.02, -187500.02, -187500.02, -187500.02, 119538.27, 119440.43, 119529.99, 0.07, 0.00, 0.00
140, -187500.02, -187500.02, -187500.02, -187500.02, -187500.02, 119537.30, 119439.54, 119529.08, 0.07, 0.00, 0.00
141, -187500.02, -187500.02, -187500.02, -187500.02, -187500.02, 119560.41, 119462.56, 119552.13, 0.07, 0.00, 0.00
142, -187500.02, -187500.02, -187500.02, -187500.02, -187500.02, 119549.62, 119451.77, 119541.35, 0.07, 0.00, 0.00
143, -187500.02, -187500.02, -187500.02, -187500.02, -187500.02, 119504.52, 119406.61, 119496.18, 0.07, 0.00, 0.00
144, -187500.02, -187500.02, -187500.02, -187500.02, -187500.02, 119493.85, 119395.98, 119485.58, 0.07, 0.00, 0.00
145, -187500.02, -187500.02, -187500.02, -187500.02, -187500.02, 119519.53, 119421.74, 119511.38, 0.07, 0.00, 0.00
146, -187500.02, -187500.02, -187500.02, -187500.02, -187500.02, 119519.00, 119421.16, 119510.80, 0.07, 0.00, 0.00
147, -187500.02, -187500.02, -187500.02, -187500.02, -187500.02, 119471.84, 119373.98, 119463.68, 0.07, 0.00, 0.00
148, -187500.02, -187500.02, -187500.02, -187500.02, -187500.02, 119453.87, 119356.12, 119445.82, 0.07, 0.00, 0.00
149, -187500.02, -187500.02, -187500.02, -187500.02, -187500.02, 119476.95, 119379.08, 119468.73, 0.07, 0.00, 0.00
150, -187500.02, -187500.02, -187500.02, -187500.02, -187500.02, 119482.34, 119384.48, 119474.07, 0.07, 0.00, 0.00
151, -187500.02, -187500.02, -187500.02, -187500.02, -187500.02, 119440.99, 119343.23, 119432.85, 0.07, 0.00, 0.00
152, -187500.02, -187500.02, -187500.02, -187500.02, -187500.02, 119411.30, 119313.52, 119403.13, 0.07, 0.00, 0.00
153, -187500.02, -187500.02, -187500.02, -187500.02, -187500.02, 119428.32, 119330.55, 119420.09, 0.07, 0.00, 0.00
154, -187500.02, -187500.02, -187500.02, -187500.02, -187500.02, 119442.76, 119344.92, 119434.46, 0.07, 0.00, 0.00
155, -187500.02, -187500.02, -187500.02, -187500.02, -187500.02, 119410.13, 119312.45, 119401.92, 0.07, 0.00, 0.00
156, -187500.02, -187500.02, -187500.02, -187500.02, -187500.02, 119373.02, 119275.23, 119364.86, 0.07, 0.00, 0.00
157, -187500.02, -187500.02, -187500.02, -187500.02, -187500.02, 119384.75, 119286.90, 119376.57, 0.07, 0.00, 0.00
158, -187500.02, -187500.02, -187500.02, -187500.02, -187500.02, 119403.30, 119305.47, 119395.03, 0.07, 0.00, 0.00
159, -187500.02, -187500.02, -187500.02, -187500.02, -187500.02, 119376.77, 119278.98, 119368.57, 0.07, 0.00, 0.00
160, -187500.02, -187500.02, -187500.02, -187500.02, -187500.02, 119337.93, 119240.20, 119329.68, 0.07, 0.00, 0.00
161, -187500.02, -187500.02, -187500.02, -187500.02, -187500.02, 119343.36, 119245.52, 119335.04, 0.07, 0.00, 0.00
162, -187500.02, -187500.02, -187500.02, -187500.02, -187500.02, 119365.89, 119268.05, 119357.57, 0.07, 0.00, 0.00
163, -187500.02, -187500.02, -187500.02, -187500.02, -187500.02, 119346.45, 119248.74, 119338.22, 0.06, 0.00, 0.00
164, -187500.02, -187500.02, -187500.02, -187500.02, -187500.02, 119298.43, 119200.71, 119290.16, 0.06, 0.00, 0.00
165, -187500.02, -187500.02, -187500.02, -187500.02, -187500.02, 119294.92, 119197.20, 119286.65, 0.06, 0.00, 0.00
166, -187500.02, -187500.02, -187500.02, -187500.02, -187500.02, 119321.68, 119223.82, 119313.32, 0.06, 0.00, 0.00
167, -187500.02, -187500.02, -187500.02, -187500.02, -187500.02, 119313.90, 119216.18, 119305.54, 0.06, 0.00, 0.00
168, -187500.02, -187500.02, -187500.02, -187500.02, -187500.02, 119268.19, 119170.53, 119259.92, 0.06, 0.00, 0.00
169, -187500.02, -187500.02, -187500.02, -187500.02, -187500.02, 119255.88, 119158.20, 119247.63, 0.06, 0.00, 0.00
170, -187500.02, -187500.02, -187500.02, -187500.02, -187500.02, 119281.09, 119183.23, 119272.91, 0.06, 0.00, 0.00
171, -187500.02, -187500.02, -187500.02, -187500.02, -187500.02, 119281.31, 119183.48, 119273.02, 0.06, 0.00, 0.00
172, -187500.02, -187500.02, -187500.02, -187500.02, -187500.02, 119235.22, 119137.52, 119226.93, 0.06, 0.00, 0.00
173, -187500.02, -187500.02, -187500.02, -187500.02, -187500.02, 119214.43, 119116.69, 119206.07, 0.06, 0.00, 0.00
174, -187500.02, -187500.02, -187500.02, -187500.02, -187500.02, 119237.79, 119140.12, 119229.48, 0.06, 0.00, 0.00
175, -187500.02, -187500.02, -187500.02, -187500.02, -187500.02, 119248.19, 119150.53, 119240.00, 0.06, 0.00, 0.00
176, -187500.02, -187500.02, -187500.02, -187500.02, -187500.02, 119208.64, 119111.10, 119200.48, 0.06, 0.00, 0.00
177, -187500.02, -187500.02, -187500.02, -187500.02, -187500.02, 119173.93, 119076.37, 119165.84, 0.06, 0.00, 0.00
178, -187500.02, -187500.02, -187500.02, -187500.02, -187500.02, 119190.49, 119092.86, 119182.42, 0.06, 0.00, 0.00
179, -187500.02, -187500.02, -187500.02, -187500.02, -187500.02, 119208.24, 119110.61, 119200.17, 0.06, 0.00, 0.00
180, -187500.02, -187500.02, -187500.02, -187500.02, -187500.02, 119177.95, 119080.30, 119169.80, 0.06, 0.00, 0.00
181, -187500.02, -187500.02, -187500.02, -187500.02, -187500.02, 119137.05, 119039.33, 119128.73, 0.06, 0.00, 0.00
182, -187500.02, -187500.02, -187500.02, -187500.02, -187500.02, 119143.24, 119045.55, 119134.97, 0.06, 0.00, 0.00
183, -187500.02, -187500.02, -187500.02, -187500.02, -187500.02, 119165.28, 119067.63, 119157.15, 0.06, 0.00, 0.00
184, -187500.02, -187500.02, -187500.02, -187500.02, -187500.02, 119147.16, 119049.61, 119139.09, 0.06, 0.00, 0.00
185, -187500.02, -187500.02, -187500.02, -187500.02, -187500.02, 119104.89, 119007.32, 119096.82, 0.06, 0.00, 0.00
186, -187500.02, -187500.02, -187500.02, -187500.02, -187500.02, 119103.91, 119006.25, 119095.74, 0.06, 0.00, 0.00
187, -187500.02, -187500.02, -187500.02, -187500.02, -187500.02, 119126.37, 119028.76, 119118.23, 0.06, 0.00, 0.00
188, -187500.02, -187500.02, -187500.02, -187500.02, -187500.02, 119112.40, 119014.79, 119104.33, 0.06, 0.00, 0.00
189, -187500.02, -187500.02, -187500.02, -187500.02, -187500.02, 119069.95, 118972.38, 119061.75, 0.06, 0.00, 0.00
190, -187500.02, -187500.02, -187500.02, -187500.02, -187500.02, 119060.50, 118962.87, 119052.12, 0.06, 0.00, 0.00
191, -187500.02, -187500.02, -187500.02, -187500.02, -187500.02, 119087.66, 118989.91, 119079.27, 0.06, 0.00, 0.00
192, -187500.02, -187500.02, -187500.02, -187500.02, -187500.02, 119083.92, 118986.27, 119075.63, 0.06, 0.00, 0.00
193, -187500.02, -187500.02, -187500.02, -187500.02, -187500.02, 119038.88, 118941.25, 119030.59, 0.06, 0.00, 0.00
194, -187500.02, -187500.02, -187500.02, -187500.02, -187500.02, 119022.09, 118924.46, 119013.85, 0.06, 0.00, 0.00
195, -187500.02, -187500.02, -187500.02, -187500.02, -187500.02, 119046.19, 118948.58, 119037.97, 0.06, 0.00, 0.00
196, -187500.02, -187500.02, -187500.02, -187500.02, -187500.02, 119049.21, 118951.64, 119041.03, 0.06, 0.00, 0.00
197, -187500.02, -187500.02, -187500.02, -187500.02, -187500.02, 119006.95, 118909.29, 118998.76, 0.06, 0.00, 0.00
198, -187500.02, -187500.02, -187500.02, -187500.02, -187500.02, 118980.48, 118882.87, 118972.27, 0.06, 0.00, 0.00
199, -187500.02, -187500.02, -187500.02, -187500.02, -187500.02, 119000.91, 118903.37, 118992.73, 0.06, 0.00, 0.00
200, -187500.02, -187500.02, -187500.02, -187500.02, -187500.02, 119012.75, 118915.12, 119004.55, 0.06, 0.00, 0.00
201, -187500.02, -187500.02, -187500.02, -187500.02, -187500.02, 118974.38, 118876.81, 118966.22, 0.06, 0.00, 0.00
202, -187500.02, -187500.02, -187500.02, -187500.02, -187500.02, 118938.97, 118841.45, 118930.90, 0.06, 0.00, 0.00
203, -187500.02, -187500.02, -187500.02, -187500.02, -187500.02, 118955.22, 118857.63, 118946.91, 0.06, 0.00, 0.00
204, -187500.02, -187500.02, -187500.02, -187500.02, -187500.02, 118975.36, 118877.73, 118967.06, 0.06, 0.00, 0.00
205, -187500.02, -187500.02, -187500.02, -187500.02, -187500.02, 118948.29, 118850.73, 118940.06, 0.06, 0.00, 0.00
206, -187500.02, -187500.02, -187500.02, -187500.02, -187500.02, 118904.91, 118807.50, 118896.77, 0.06, 0.00, 0.00
207, -187500.02, -187500.02, -187500.02, -187500.02, -187500.02, 118911.86, 118814.43, 118903.66, 0.06, 0.00, 0.00
208, -187500.02, -187500.02, -187500.02, -187500.02, -187500.02, 118937.12, 118839.66, 118928.95, 0.06, 0.00, 0.00
209, -187500.02, -187500.02, -187500.02, -187500.02, -187500.02, 118915.77, 118818.30, 118907.70, 0.06, 0.00, 0.00
210, -187500.02, -187500.02, -187500.02, -187500.02, -187500.02, 118868.34, 118770.86, 118860.27, 0.06, 0.00, 0.00
211, -187500.02, -187500.02, -187500.02, -187500.02, -187500.02, 118867.51, 118769.97, 118859.45, 0.06, 0.00, 0.00
212, -187500.02, -187500.02, -187500.02, -187500.02, -187500.02, 118892.79, 118795.16, 118884.70, 0.06, 0.00, 0.00
213, -187500.02, -187500.02, -187500.02, -187500.02, -187500.02, 118882.76, 118785.21, 118874.64, 0.06, 0.00, 0.00
214, -187500.02, -187500.02, -187500.02, -187500.02, -187500.02, 118838.34, 118740.76, 118830.19, 0.06, 0.00, 0.00
215, -187500.02, -187500.02, -187500.02, -187500.02, -187500.02, 118825.76, 118728.13, 118817.55, 0.06, 0.00, 0.00
216, -187500.02, -187500.02, -187500.02, -187500.02, -187500.02, 118848.98, 118751.35, 118840.82, 0.06, 0.00, 0.00
217, -187500.02, -187500.02, -187500.02, -187500.02, -187500.02, 118846.61, 118749.09, 118838.48, 0.06, 0.00, 0.00
218, -187500.02, -187500.02, -187500.02, -187500.02, -187500.02, 118805.13, 118707.72, 118797.02, 0.06, 0.00, 0.00
219, -187500.02, -187500.02, -187500.02, -187500.02, -187500.02, 118784.36, 118686.87, 118776.18, 0.06, 0.00, 0.00
220, -187500.02, -187500.02, -187500.02, -187500.02, -187500.02, 118805.58, 118708.08, 118797.53, 0.06, 0.00, 0.00
221, -187500.02, -187500.02, -187500.02, -187500.02, -187500.02, 118812.86, 118715.34, 118804.79, 0.06, 0.00, 0.00
222, -187500.02, -187500.02, -187500.02, -187500.02, -187500.02, 118771.89, 118674.44, 118763.84, 0.06, 0.00, 0.00
223, -187500.02, -187500.02, -187500.02, -187500.02, -187500.02, 118743.46, 118646.05, 118735.39, 0.06, 0.00, 0.00
224, -187500.02, -187500.02, -187500.02, -187500.02, -187500.02, 118760.24, 118662.91, 118752.11, 0.06, 0.00, 0.00
225, -187500.02, -187500.02, -187500.02, -187500.02, -187500.02, 118772.52, 118675.22, 118764.36, 0.06, 0.00, 0.00
226, -187500.02, -187500.02, -187500.02, -187500.02, -187500.02, 118739.62, 118642.34, 118731.45, 0.06, 0.00, 0.00
227, -187500.02, -187500.02, -187500.02, -187500.02, -187500.02, 118703.34, 118606.02, 118695.20, 0.06, 0.00, 0.00
228, -187500.02, -187500.02, -187500.02, -187500.02, -187500.02, 118717.24, 118619.85, 118709.20, 0.06, 0.00, 0.00
229, -187500.02, -187500.02, -187500.02, -187500.02, -187500.02, 118738.74, 118641.24, 118730.65, 0.06, 0.00, 0.00
230, -187500.02, -187500.02, -187500.02, -187500.02, -187500.02, 118710.58, 118613.15, 118702.45, 0.06, 0.00, 0.00
231, -187500.02, -187500.02, -187500.02, -187500.02, -187500.02, 118665.02, 118567.71, 118656.94, 0.06, 0.00, 0.00
232, -187500.02, -187500.02, -187500.02, -187500.02, -187500.02, 118668.29, 118571.02, 118660.24, 0.06, 0.00, 0.00
233, -187500.02, -187500.02, -187500.02, -187500.02, -187500.02, 118691.89, 118594.48, 118683.73, 0.06, 0.00, 0.00
234, -187500.02, -187500.02, -187500.02, -187500.02, -187500.02, 118676.59, 118579.11, 118668.40, 0.06, 0.00, 0.00
235, -187500.02, -187500.02, -187500.02, -187500.02, -187500.02, 118630.23, 118532.80, 118622.00, 0.06, 0.00, 0.00
236, -187500.02, -187500.02, -187500.02, -187500.02, -187500.02, 118625.78, 118528.39, 118617.59, 0.06, 0.00, 0.00
237, -187500.02, -187500.02, -187500.02, -187500.02, -187500.02, 118651.55, 118554.07, 118643.32, 0.06, 0.00, 0.00
238, -187500.02, -187500.02, -187500.02, -187500.02, -187500.02, 118643.77, 118546.25, 118635.55, 0.06, 0.00, 0.00
239, -187500.02, -187500.02, -187500.02, -187500.02, -187500.02, 118597.44, 118499.98, 118589.32, 0.06, 0.00, 0.00
240, -187500.02, -187500.02, -187500.02, -187500.02, -187500.02, 118583.80, 118486.34, 118575.69, 0.06, 0.00, 0.00
241, -187500.02, -187500.02, -187500.02, -187500.02, -187500.02, 118607.96, 118510.60, 118599.88, 0.06, 0.00, 0.00
242, -187500.02, -187500.02, -187500.02, -187500.02, -187500.02, 118610.42, 118513.04, 118602.33, 0.06, 0.00, 0.00
243, -187500.02, -187500.02, -187500.02, -187500.02, -187500.02, 118563.48, 118466.14, 118555.34, 0.06, 0.00, 0.00
244, -187500.02, -187500.02, -187500.02, -187500.02, -187500.02, 118537.02, 118439.66, 118528.86, 0.06, 0.00, 0.00
245, -187500.02, -187500.02, -187500.02, -187500.02, -187500.02, 118560.84, 118463.44, 118552.71, 0.06, 0.00, 0.00
246, -187500.02, -187500.02, -187500.02, -187500.02, -187500.02, 118570.50, 118473.07, 118562.34, 0.06, 0.00, 0.00
247, -187500.02, -187500.02, -187500.02, -187500.02, -187500.02, 118534.11, 118436.81, 118526.00, 0.06, 0.00, 0.00
248, -187500.02, -187500.02, -187500.02, -187500.02, -187500.02, 118501.26, 118403.94, 118493.03, 0.06, 0.00, 0.00
249, -187500.02, -187500.02, -187500.02, -187500.02, -187500.02, 118517.62, 118420.23, 118509.46, 0.06, 0.00, 0.00
250, -187500.02, -187500.02, -187500.02, -187500.02, -187500.02, 118534.20, 118436.81, 118526.11, 0.06, 0.00, 0.00
251, -187500.02, -187500.02, -187500.02, -187500.02, -187500.02, 118502.69, 118405.41, 118494.66, 0.06, 0.00, 0.00
252, -187500.02, -187500.02, -187500.02, -187500.02, -187500.02, 118466.21, 118368.82, 118458.14, 0.06, 0.00, 0.00
253, -187500.02, -187500.02, -187500.02, -187500.02, -187500.02, 118475.22, 118377.78, 118467.02, 0.06, 0.00, 0.00
254, -187500.02, -187500.02, -187500.02, -187500.02, -187500.02, 118494.55, 118397.19, 118486.46, 0.06, 0.00, 0.00
255, -187500.02, -187500.02, -187500.02, -187500.02, -187500.02, 118472.84, 118375.48, 118464.76, 0.06, 0.00, 0.00
0, -187500.02, -187500.02, -187500.02, -187500.02, -187500.02, 118427.77, 118330.45, 118419.65, 0.06, 0.00, 0.00
1, -187500.02, -187500.02, -187500.02, -187500.02, -187500.02, 118430.34, 118333.10, 118422.16, 0.06, 0.00, 0.00
2, -187500.02, -187500.02, -187500.02, -187500.02, -187500.02, 118454.43, 118357.24, 118446.34, 0.06, 0.00, 0.00
3, -187500.02, -187500.02, -187500.02, -187500.02, -187500.02, 118439.23, 118342.00, 118431.14, 0.06, 0.00, 0.00
4, -187500.02, -187500.02, -187500.02, -187500.02, -187500.02, 118394.13, 118296.89, 118385.97, 0.06, 0.00, 0.00
5, -187500.02, -187500.02, -187500.02, -187500.02, -187500.02, 118383.53, 118286.14, 118375.33, 0.06, 0.00, 0.00
6, -187500.02, -187500.02, -187500.02, -187500.02, -187500.02, 118409.03, 118311.55, 118400.74, 0.06, 0.00, 0.00
7, -187500.02, -187500.02, -187500.02, -187500.02, -187500.02, 118406.66, 118309.23, 118398.48, 0.06, 0.00, 0.00
8, -187500.02, -187500.02, -187500.02, -187500.02, -187500.02, 118362.07, 118264.82, 118353.94, 0.06, 0.00, 0.00
9, -187500.02, -187500.02, -187500.02, -187500.02, -187500.02, 118343.81, 118246.49, 118335.70, 0.06, 0.00, 0.00
10, -187500.02, -187500.02, -187500.02, -187500.02, -187500.02, 118365.11, 118267.73, 118356.95, 0.06, 0.00, 0.00
11, -187500.02, -187500.02, -187500.02, -187500.02, -187500.02, 118372.17, 118274.77, 118363.95, 0.06, 0.00, 0.00
12, -187500.02, -187500.02, -187500.02, -187500.02, -187500.02, 118332.10, 118234.64, 118323.85, 0.06, 0.00, 0.00
13, -187500.02, -187500.02, -187500.02, -187500.02, -187500.02, 118303.40, 118205.99, 118295.20, 0.07, 0.00, 0.00
14, -187500.02, -187500.02, -187500.02, -187500.02, -187500.02, 118323.31, 118225.95, 118315.13, 0.07, 0.00, 0.00
15, -187500.02, -187500.02, -187500.02, -187500.02, -187500.02, 118336.13, 118238.78, 118327.94, 0.07, 0.00, 0.00
16, -187500.02, -187500.02, -187500.02, -187500.02, -187500.02, 118302.70, 118205.38, 118294.57, 0.07, 0.01, 0.08
17, -187500.02, -187500.02, -187500.02, -187500.02, -187500.02, 118267.30, 118169.96, 118259.12, 0.07, 0.00, 0.00
18, -187500.02, -187500.02, -187500.02, -187500.02, -187500.02, 118279.99, 118182.68, 118271.81, 0.07, 0.00, 0.00
19, -187500.02, -187500.02, -187500.02, -187500.02, -187500.02, 118296.40, 118199.02, 118288.13, 0.07, 0.00, 0.00
20, -187500.02, -187500.02, -187500.02, -187500.02, -187500.02, 118270.81, 118173.49, 118262.54, 0.07, 0.00, 0.00
21, -187500.02, -187500.02, -187500.02, -187500.02, -187500.02, 118228.56, 118131.24, 118220.32, 0.07, 0.00, 0.00
