%OpenBCI Raw EEG Data
%
%Sample Rate = 250.0 Hz
%First Column = SampleIndex
%Other Columns = EEG data in microvolts followed by Accel Data (in G) interleaved with Aux Data
0, -8626.83, -8765.17, -9232.63, -8866.94, -172364.91, -154990.20, -157175.25, -156926.70, 0.02, -0.04, 0.98
1, -8580.97, -8722.86, -9191.08, -8826.73, -172322.58, -154948.56, -157131.02, -156881.95, 0.00, 0.00, 0.00
2, -8566.62, -8709.45, -9177.65, -8813.94, -172309.02, -154935.61, -157117.16, -156868.31, 0.00, 0.00, 0.00
3, -8608.01, -8747.47, -9214.98, -8849.95, -172346.78, -154973.20, -157157.20, -156908.86, 0.00, 0.00, 0.00
4, -8629.67, -8767.78, -9235.09, -8869.26, -172366.95, -154993.16, -157178.28, -156929.78, 0.00, 0.00, 0.00
5, -8590.29, -8731.55, -9199.58, -8834.95, -172330.80, -154957.48, -157140.14, -156891.14, 0.00, 0.00, 0.00
6, -8565.57, -8708.71, -9177.02, -8813.27, -172307.94, -154935.16, -157116.31, -156867.48, 0.00, 0.00, 0.00
7, -8602.40, -8742.68, -9210.26, -8845.50, -172341.73, -154968.81, -157152.25, -156903.77, 0.03, -0.04, 0.98
8, -8631.71, -8769.68, -9236.99, -8871.16, -172368.69, -154995.50, -157180.80, -156932.23, 0.00, 0.00, 0.00
9, -8595.16, -8735.73, -9203.69, -8838.86, -172334.73, -154961.84, -157145.25, -156896.25, 0.00, 0.00, 0.00
10, -8561.32, -8704.48, -9172.87, -8809.25, -172303.59, -154931.36, -157112.73, -156863.58, 0.00, 0.00, 0.00
11, -8592.08, -8732.98, -9200.85, -8836.34, -172331.94, -154959.67, -157142.75, -156894.06, 0.00, 0.00, 0.00
12, -8630.72, -8768.63, -9236.01, -8870.25, -172367.44, -154994.80, -157180.13, -156931.66, 0.00, 0.00, 0.00
13, -8605.13, -8744.92, -9212.79, -8847.58, -172343.70, -154971.28, -157155.13, -156906.31, 0.00, 0.00, 0.00
14, -8562.15, -8705.13, -9173.58, -8809.76, -172303.84, -154932.30, -157113.67, -156864.63, 0.00, 0.00, 0.00
15, -8581.44, -8722.99, -9190.97, -8826.73, -172321.59, -154950.20, -157132.56, -156883.84, 0.00, 0.00, 0.00
16, -8625.31, -8763.43, -9230.78, -8865.17, -172362.05, -154990.05, -157175.03, -156926.58, 0.03, -0.05, 0.98
17, -8613.16, -8752.27, -9220.05, -8854.69, -172350.88, -154978.98, -157163.16, -156914.45, 0.00, 0.00, 0.00
18, -8566.44, -8709.20, -9177.60, -8813.70, -172307.69, -154936.72, -157118.16, -156869.05, 0.00, 0.00, 0.00
19, -8572.25, -8714.30, -9182.50, -8818.57, -172312.81, -154942.08, -157123.97, -156875.22, 0.00, 0.00, 0.00
20, -8615.61, -8754.08, -9221.59, -8856.12, -172352.48, -154981.25, -157165.92, -156917.48, 0.00, 0.00, 0.00
21, -8615.50, -8754.19, -9221.88, -8856.25, -172352.48, -154981.22, -157165.70, -156917.05, 0.00, 0.00, 0.00
22, -8568.12, -8710.45, -9178.90, -8814.79, -172308.86, -154938.28, -157120.00, -156870.89, 0.00, 0.00, 0.00
23, -8564.43, -8707.08, -9175.37, -8811.66, -172305.34, -154935.22, -157116.64, -156867.84, 0.00, 0.00, 0.00
24, -8611.88, -8750.93, -9218.51, -8853.39, -172349.06, -154978.63, -157162.84, -156914.41, 0.00, 0.00, 0.00
25, -8624.08, -8762.29, -9229.97, -8864.34, -172360.48, -154989.83, -157174.69, -156925.98, 0.00, 0.00, 0.00
26, -8579.25, -8720.89, -9189.34, -8825.05, -172319.11, -154949.11, -157131.22, -156882.06, 0.03, -0.04, 0.98
27, -8563.22, -8706.09, -9174.65, -8811.04, -172304.23, -154934.73, -157115.91, -156866.92, 0.00, 0.00, 0.00
28, -8602.18, -8741.77, -9209.59, -8844.74, -172339.78, -154969.89, -157153.64, -156905.13, 0.00, 0.00, 0.00
29, -8621.63, -8759.63, -9227.20, -8861.50, -172357.63, -154987.45, -157172.39, -156923.97, 0.00, 0.00, 0.00
30, -8585.17, -8726.21, -9194.43, -8829.94, -172324.25, -154954.58, -157137.23, -156888.25, 0.00, 0.00, 0.00
31, -8557.59, -8700.73, -9169.18, -8805.76, -172298.64, -154929.64, -157110.56, -156861.66, 0.00, 0.00, 0.00
32, -8594.85, -8735.26, -9203.02, -8838.62, -172332.97, -154963.91, -157146.86, -156898.42, 0.00, 0.00, 0.00
33, -8628.76, -8766.58, -9234.09, -8868.52, -172364.22, -154994.80, -157179.72, -156931.28, 0.00, 0.00, 0.00
34, -8597.46, -8737.68, -9205.83, -8841.17, -172335.34, -154966.30, -157149.44, -156900.44, 0.00, 0.00, 0.00
35, -8558.68, -8701.74, -9170.29, -8806.86, -172299.38, -154930.98, -157111.95, -156862.84, 0.00, 0.00, 0.00
36, -8583.07, -8724.09, -9192.04, -8827.84, -172321.50, -154953.17, -157135.73, -156887.02, 0.03, -0.04, 0.98
37, -8622.90, -8760.79, -9228.41, -8862.76, -172358.25, -154989.42, -157174.33, -156925.83, 0.00, 0.00, 0.00
38, -8601.40, -8740.96, -9209.08, -8844.12, -172338.41, -154969.88, -157153.45, -156904.56, 0.00, 0.00, 0.00
39, -8557.75, -8700.75, -9169.33, -8805.76, -172298.13, -154930.31, -157111.39, -156862.23, 0.00, 0.00, 0.00
40, -8573.39, -8715.12, -9183.30, -8819.30, -172312.41, -154944.77, -157126.75, -156877.88, 0.00, 0.00, 0.00
41, -8617.00, -8755.31, -9222.91, -8857.44, -172352.44, -154984.36, -157169.02, -156920.50, 0.00, 0.00, 0.00
42, -8606.11, -8745.23, -9213.17, -8847.89, -172342.31, -154974.34, -157158.38, -156909.53, 0.00, 0.00, 0.00
43, -8559.91, -8702.61, -9171.19, -8807.41, -172299.67, -154932.36, -157113.72, -156864.45, 0.00, 0.00, 0.00
44, -8566.26, -8708.49, -9176.80, -8812.98, -172305.50, -154938.39, -157120.06, -156871.17, 0.00, 0.00, 0.00
45, -8614.90, -8753.43, -9221.10, -8855.74, -172350.41, -154982.91, -157167.38, -156918.78, 0.00, 0.00, 0.00
46, -8616.69, -8755.11, -9223.04, -8857.44, -172352.08, -154984.52, -157169.03, -156920.14, 0.03, -0.04, 0.99
47, -8570.44, -8712.62, -9181.18, -8817.25, -172309.53, -154942.73, -157124.36, -156875.09, 0.00, 0.00, 0.00
48, -8562.86, -8705.62, -9174.03, -8810.48, -172302.47, -154936.16, -157117.30, -156868.19, 0.00, 0.00, 0.00
49, -8608.57, -8747.80, -9215.49, -8850.55, -172344.45, -154977.84, -157161.59, -156913.02, 0.00, 0.00, 0.00
50, -8621.60, -8759.76, -9227.45, -8861.88, -172356.44, -154989.52, -157174.22, -156925.47, 0.00, 0.00, 0.00
51, -8577.39, -8718.99, -9187.37, -8823.15, -172315.61, -154949.33, -157131.47, -156882.28, 0.00, 0.00, 0.00
52, -8558.39, -8701.44, -9169.98, -8806.41, -172297.88, -154932.25, -157113.14, -156864.09, 0.00, 0.00, 0.00
53, -8599.23, -8739.24, -9207.06, -8842.33, -172335.52, -154969.59, -157152.89, -156904.41, 0.00, 0.00, 0.00
54, -8624.20, -8762.31, -9229.95, -8864.30, -172358.45, -154992.28, -157177.06, -156928.38, 0.00, 0.00, 0.00
55, -8586.02, -8726.95, -9195.31, -8830.75, -172323.16, -154957.48, -157139.98, -156890.80, 0.00, 0.00, 0.00
56, -8557.12, -8700.37, -9169.02, -8805.51, -172296.50, -154931.48, -157112.23, -156863.05, 0.03, -0.04, 0.99
57, -8589.04, -8729.65, -9197.68, -8833.28, -172325.70, -154960.55, -157143.39, -156894.52, 0.00, 0.00, 0.00
58, -8621.34, -8759.25, -9226.82, -8861.39, -172355.22, -154989.58, -157174.53, -156925.73, 0.00, 0.00, 0.00
59, -8591.56, -8731.62, -9199.84, -8835.29, -172327.63, -154962.31, -157145.47, -156896.33, 0.00, 0.00, 0.00
60, -8554.48, -8697.49, -9166.16, -8802.85, -172293.45, -154928.86, -157109.73, -156860.38, 0.00, 0.00, 0.00
61, -8579.43, -8720.67, -9188.78, -8824.78, -172316.34, -154951.88, -157134.19, -156885.22, 0.00, 0.00, 0.00
62, -8617.54, -8755.56, -9223.09, -8857.79, -172351.14, -154986.28, -157171.06, -156922.31, 0.00, 0.00, 0.00
63, -8597.93, -8737.45, -9205.45, -8840.58, -172333.03, -154968.34, -157151.95, -156902.84, 0.00, 0.00, 0.00
64, -8553.72, -8696.62, -9165.22, -8801.80, -172292.19, -154928.20, -157109.16, -156859.86, 0.00, 0.00, 0.00
65, -8567.00, -8708.89, -9177.09, -8813.45, -172304.34, -154940.61, -157122.30, -156873.34, 0.00, 0.00, 0.00
66, -8611.81, -8750.24, -9217.72, -8852.56, -172345.48, -154981.31, -157165.73, -156917.11, 0.03, -0.04, 0.98
67, -8603.90, -8742.82, -9210.75, -8845.52, -172338.11, -154973.95, -157157.95, -156909.00, 0.00, 0.00, 0.00
68, -8558.08, -8700.55, -9169.27, -8805.60, -172295.91, -154932.50, -157113.73, -156864.36, 0.00, 0.00, 0.00
69, -8559.49, -8701.78, -9170.27, -8806.63, -172297.00, -154933.88, -157115.23, -156866.08, 0.00, 0.00, 0.00
70, -8607.70, -8746.37, -9214.10, -8849.08, -172341.48, -154977.98, -157162.06, -156913.28, 0.00, 0.00, 0.00
71, -8611.32, -8749.77, -9217.61, -8852.27, -172344.78, -154981.22, -157165.55, -156916.58, 0.00, 0.00, 0.00
72, -8566.57, -8708.53, -9177.16, -8813.34, -172303.59, -154940.66, -157122.30, -156872.83, 0.00, 0.00, 0.00
73, -8557.14, -8699.99, -9168.51, -8805.16, -172294.92, -154932.47, -157113.41, -156864.30, 0.00, 0.00, 0.00
74, -8600.88, -8740.36, -9208.11, -8843.49, -172335.16, -154972.47, -157155.98, -156907.20, 0.00, 0.00, 0.00
75, -8614.38, -8752.47, -9220.36, -8854.91, -172347.25, -154984.36, -157168.86, -156919.95, 0.00, 0.00, 0.00
76, -8572.47, -8713.87, -9182.45, -8818.14, -172308.61, -154946.28, -157128.20, -156878.80, 0.02, -0.04, 0.98
77, -8551.75, -8694.92, -9163.52, -8800.13, -172289.52, -154927.69, -157108.33, -156859.03, 0.00, 0.00, 0.00
78, -8591.50, -8731.64, -9199.58, -8835.13, -172326.00, -154964.03, -157147.06, -156898.20, 0.00, 0.00, 0.00
79, -8616.53, -8754.53, -9222.26, -8856.81, -172348.86, -154986.52, -157171.09, -156922.34, 0.00, 0.00, 0.00
80, -8580.77, -8721.52, -9189.92, -8825.50, -172315.89, -154954.02, -157136.38, -156887.20, 0.00, 0.00, 0.00
81, -8550.12, -8693.26, -9162.11, -8798.70, -172287.63, -154926.44, -157107.03, -156857.67, 0.00, 0.00, 0.00
82, -8582.69, -8723.44, -9191.57, -8827.46, -172317.61, -154956.39, -157138.80, -156889.92, 0.00, 0.00, 0.00
83, -8617.58, -8755.49, -9223.18, -8857.88, -172349.64, -154988.02, -157172.45, -156923.75, 0.00, 0.00, 0.00
84, -8589.13, -8728.96, -9197.32, -8832.72, -172323.11, -154961.80, -157144.77, -156895.47, 0.00, 0.00, 0.00
85, -8550.53, -8693.55, -9162.45, -8799.14, -172287.69, -154927.06, -157107.64, -156858.19, 0.00, 0.00, 0.00
86, -8574.02, -8715.37, -9183.64, -8819.91, -172309.30, -154948.75, -157130.56, -156881.59, 0.03, -0.04, 0.99
87, -8616.75, -8754.87, -9222.49, -8857.35, -172348.58, -154987.70, -157172.05, -156923.30, 0.00, 0.00, 0.00
88, -8599.79, -8739.11, -9207.22, -8842.37, -172332.77, -154972.11, -157155.44, -156906.31, 0.00, 0.00, 0.00
89, -8553.10, -8695.99, -9164.68, -8801.38, -172289.66, -154929.61, -157110.20, -156860.80, 0.00, 0.00, 0.00
90, -8562.84, -8704.89, -9173.27, -8809.85, -172298.45, -154938.64, -157119.92, -156870.77, 0.00, 0.00, 0.00
91, -8610.54, -8748.96, -9216.72, -8851.89, -172342.47, -154982.20, -157166.20, -156917.48, 0.00, 0.00, 0.00
92, -8606.00, -8744.94, -9212.92, -8847.98, -172338.27, -154978.09, -157161.75, -156912.81, 0.00, 0.00, 0.00
93, -8557.07, -8699.63, -9168.39, -8804.89, -172292.97, -154933.45, -157114.36, -156865.03, 0.00, 0.00, 0.00
94, -8554.84, -8697.33, -9166.03, -8802.72, -172290.70, -154931.61, -157112.34, -156863.23, 0.00, 0.00, 0.00
95, -8603.14, -8741.97, -9209.92, -8845.34, -172335.25, -154975.84, -157159.30, -156910.61, 0.00, 0.00, 0.00
96, -8611.48, -8749.79, -9217.79, -8852.88, -172343.03, -154983.34, -157167.45, -156918.42, 0.03, -0.04, 0.98
97, -8565.79, -8707.73, -9176.37, -8812.80, -172300.92, -154941.81, -157123.14, -156873.75, 0.00, 0.00, 0.00
98, -8553.03, -8695.97, -9164.66, -8801.65, -172289.13, -154930.63, -157110.94, -156861.77, 0.00, 0.00, 0.00
99, -8596.17, -8735.84, -9203.78, -8839.42, -172328.72, -154969.98, -157152.94, -156904.14, 0.00, 0.00, 0.00
100, -8613.07, -8751.27, -9219.13, -8854.02, -172344.03, -154985.05, -157169.22, -156920.38, 0.00, 0.00, 0.00
101, -8572.56, -8713.74, -9182.45, -8818.54, -172306.66, -154948.20, -157129.89, -156880.67, 0.00, 0.00, 0.00
102, -8548.89, -8691.90, -9160.91, -8797.83, -172284.92, -154926.95, -157107.19, -156857.98, 0.00, 0.00, 0.00
103, -8586.78, -8726.95, -9195.28, -8831.11, -172319.84, -154961.64, -157144.16, -156895.30, 0.00, 0.00, 0.00
104, -8614.12, -8752.00, -9219.96, -8854.80, -172344.70, -154986.23, -157170.58, -156921.69, 0.00, 0.00, 0.00
105, -8580.07, -8720.53, -9189.18, -8824.98, -172313.30, -154955.27, -157137.61, -156888.25, 0.03, -0.04, 0.99
106, -8547.42, -8690.63, -9159.59, -8796.62, -172283.33, -154926.06, -157106.25, -156856.84, 0.00, 0.00, 0.00
107, -8578.20, -8719.10, -9187.51, -8823.82, -172311.67, -154954.38, -157136.22, -156887.36, 0.00, 0.00, 0.00
108, -8613.94, -8751.89, -9219.87, -8854.89, -172344.28, -154986.59, -157170.78, -156922.08, 0.00, 0.00, 0.00
109, -8589.84, -8729.72, -9198.30, -8833.79, -172322.20, -154964.69, -157147.44, -156898.25, 0.00, 0.00, 0.00
110, -8549.14, -8692.15, -9161.24, -8798.16, -172284.72, -154927.84, -157108.11, -156858.70, 0.00, 0.00, 0.00
111, -8568.32, -8709.78, -9178.54, -8815.08, -172302.31, -154945.58, -157126.98, -156877.92, 0.00, 0.00, 0.00
112, -8612.06, -8750.31, -9218.37, -8853.30, -172342.53, -154985.41, -157169.53, -156920.66, 0.00, 0.00, 0.00
113, -8596.53, -8735.82, -9204.25, -8839.51, -172328.02, -154970.97, -157154.27, -156905.03, 0.00, 0.00, 0.00
114, -8549.68, -8692.46, -9161.58, -8798.29, -172284.67, -154928.47, -157108.91, -156859.33, 0.00, 0.00, 0.00
115, -8559.09, -8701.31, -9170.07, -8806.79, -172293.47, -154937.45, -157118.31, -156869.23, 0.03, -0.04, 0.99
116, -8605.94, -8744.49, -9212.54, -8847.76, -172336.50, -154980.05, -157163.80, -156915.00, 0.00, 0.00, 0.00
117, -8604.35, -8742.97, -9211.24, -8846.22, -172334.97, -154978.47, -157162.13, -156912.97, 0.00, 0.00, 0.00
118, -8556.11, -8698.40, -9167.39, -8803.88, -172290.50, -154934.64, -157115.45, -156865.92, 0.00, 0.00, 0.00
119, -8551.60, -8694.20, -9163.01, -8799.86, -172286.25, -154930.91, -157111.23, -156862.09, 0.00, 0.00, 0.00
120, -8598.92, -8737.90, -9206.06, -8841.54, -172329.95, -154974.14, -157157.20, -156908.66, 0.00, 0.00, 0.00
121, -8608.57, -8746.86, -9215.00, -8849.88, -172338.67, -154982.67, -157166.55, -156917.63, 0.00, 0.00, 0.00
122, -8563.09, -8704.82, -9173.65, -8809.94, -172296.69, -154941.33, -157122.47, -156873.09, 0.00, 0.00, 0.00
123, -8546.68, -8689.69, -9158.45, -8795.52, -172281.50, -154926.69, -157106.77, -156857.63, 0.00, 0.00, 0.00
124, -8589.24, -8728.87, -9197.09, -8832.85, -172320.67, -154965.56, -157148.22, -156899.50, 0.00, 0.00, 0.00
125, -8611.05, -8748.96, -9217.12, -8851.96, -172340.75, -154985.34, -157169.28, -156920.48, 0.02, -0.05, 0.98
126, -8569.79, -8710.90, -9179.62, -8815.57, -172302.59, -154947.70, -157129.31, -156879.95, 0.00, 0.00, 0.00
127, -8543.28, -8686.54, -9155.54, -8792.48, -172278.17, -154924.03, -157104.03, -156854.69, 0.00, 0.00, 0.00
128, -8578.96, -8719.44, -9187.80, -8823.84, -172310.95, -154956.69, -157138.88, -156889.89, 0.00, 0.00, 0.00
129, -8613.29, -8751.31, -9219.36, -8854.29, -172342.88, -154988.25, -157172.19, -156923.36, 0.00, 0.00, 0.00
130, -8584.23, -8724.65, -9193.36, -8829.03, -172316.30, -154961.91, -157144.02, -156894.75, 0.00, 0.00, 0.00
131, -8548.63, -8691.83, -9161.00, -8797.91, -172283.59, -154929.86, -157109.84, -156860.45, 0.00, 0.00, 0.00
132, -8574.15, -8715.24, -9183.73, -8820.09, -172306.89, -154953.22, -157134.69, -156885.75, 0.00, 0.00, 0.00
133, -8613.40, -8751.42, -9219.42, -8854.38, -172342.94, -154988.88, -157172.75, -156924.00, 0.00, 0.00, 0.00
134, -8589.80, -8729.50, -9198.06, -8833.52, -172321.06, -154967.19, -157149.91, -156900.61, 0.00, 0.00, 0.00
135, -8548.33, -8691.30, -9160.46, -8797.36, -172282.95, -154929.92, -157109.92, -156860.41, 0.02, -0.05, 0.98
136, -8564.27, -8705.92, -9174.65, -8811.26, -172297.50, -154944.67, -157125.61, -156876.52, 0.00, 0.00, 0.00
137, -8607.05, -8745.28, -9213.32, -8848.52, -172336.77, -154983.48, -157167.02, -156918.27, 0.00, 0.00, 0.00
138, -8594.40, -8733.43, -9201.94, -8837.21, -172325.06, -154971.72, -157154.75, -156905.58, 0.00, 0.00, 0.00
139, -8545.83, -8688.55, -9157.75, -8794.36, -172280.06, -154927.52, -157107.77, -156858.33, 0.00, 0.00, 0.00
140, -8552.38, -8694.65, -9163.50, -8800.26, -172286.19, -154933.95, -157114.47, -156865.28, 0.00, 0.00, 0.00
141, -8601.73, -8740.25, -9208.47, -8843.71, -172331.98, -154979.23, -157162.53, -156913.63, 0.00, 0.00, 0.00
142, -8604.19, -8742.66, -9211.02, -8846.02, -172334.31, -154981.48, -157164.94, -156915.88, 0.00, 0.00, 0.00
143, -8556.96, -8699.10, -9168.10, -8804.78, -172290.86, -154938.63, -157119.28, -156869.75, 0.00, 0.00, 0.00
144, -8547.80, -8690.45, -9159.34, -8796.57, -172282.19, -154930.58, -157110.77, -156861.31, 0.00, 0.00, 0.00
145, -8591.21, -8730.26, -9198.46, -8834.24, -172321.97, -154969.91, -157152.86, -156903.88, 0.03, -0.04, 0.99
146, -8606.14, -8744.16, -9212.23, -8847.51, -172335.88, -154983.61, -157167.22, -156918.16, 0.00, 0.00, 0.00
147, -8562.15, -8703.57, -9172.19, -8808.87, -172295.27, -154943.58, -157124.56, -156875.06, 0.00, 0.00, 0.00
148, -8540.80, -8683.56, -9152.39, -8789.73, -172275.30, -154924.16, -157104.06, -156854.56, 0.00, 0.00, 0.00
149, -8579.56, -8719.24, -9187.28, -8823.49, -172311.00, -154959.59, -157141.83, -156892.88, 0.00, 0.00, 0.00
150, -8603.92, -8741.63, -9209.48, -8844.85, -172333.44, -154981.72, -157165.44, -156916.55, 0.00, 0.00, 0.00
151, -8564.54, -8705.09, -9173.58, -8810.10, -172296.94, -154945.78, -157127.23, -156877.84, 0.00, 0.00, 0.00
152, -8536.13, -8679.05, -9147.81, -8785.44, -172270.88, -154920.36, -157100.03, -156850.61, 0.00, 0.00, 0.00
153, -8569.59, -8709.98, -9178.03, -8814.79, -172301.75, -154951.09, -157132.77, -156883.84, 0.00, 0.00, 0.00
154, -8602.27, -8739.98, -9207.51, -8843.18, -172331.70, -154980.63, -157164.39, -156915.48, 0.00, 0.00, 0.00
155, -8573.17, -8713.16, -9181.22, -8817.70, -172304.98, -154954.22, -157136.27, -156886.84, 0.03, -0.04, 0.99
156, -8538.19, -8681.13, -9149.60, -8787.34, -172272.95, -154922.97, -157102.67, -156853.11, 0.00, 0.00, 0.00
157, -8564.32, -8705.38, -9173.25, -8810.45, -172297.20, -154947.23, -157128.33, -156879.20, 0.00, 0.00, 0.00
158, -8605.24, -8743.15, -9210.35, -8846.40, -172334.94, -154984.58, -157167.98, -156919.13, 0.00, 0.00, 0.00
159, -8586.74, -8726.10, -9193.70, -8830.32, -172317.84, -154967.67, -157150.02, -156900.80, 0.00, 0.00, 0.00
160, -8540.00, -8682.85, -9150.98, -8789.04, -172274.45, -154925.09, -157104.97, -156855.38, 0.00, 0.00, 0.00
161, -8553.57, -8695.32, -9163.08, -8800.84, -172286.92, -154937.75, -157118.44, -156869.13, 0.00, 0.00, 0.00
162, -8598.96, -8737.10, -9204.18, -8840.70, -172328.80, -154979.14, -157162.53, -156913.52, 0.00, 0.00, 0.00
163, -8590.54, -8729.23, -9196.67, -8833.23, -172321.03, -154971.44, -157154.27, -156904.91, 0.00, 0.00, 0.00
164, -8544.07, -8686.49, -9154.51, -8792.64, -172278.36, -154929.45, -157109.48, -156859.83, 0.00, 0.00, 0.00
165, -8547.26, -8689.49, -9157.22, -8795.50, -172281.31, -154932.72, -157112.84, -156863.44, 0.03, -0.04, 0.99
166, -8593.62, -8732.18, -9199.17, -8836.07, -172323.92, -154974.94, -157157.77, -156908.84, 0.00, 0.00, 0.00
167, -8596.03, -8734.21, -9201.34, -8837.97, -172325.80, -154976.86, -157159.95, -156910.81, 0.00, 0.00, 0.00
168, -8549.32, -8691.12, -9159.01, -8797.11, -172282.81, -154934.55, -157114.88, -156865.30, 0.00, 0.00, 0.00
169, -8539.01, -8681.64, -9149.42, -8788.12, -172273.31, -154925.48, -157105.25, -156855.75, 0.00, 0.00, 0.00
170, -8584.19, -8723.42, -9190.43, -8827.82, -172315.00, -154966.86, -157149.33, -156900.08, 0.00, 0.00, 0.00
171, -8602.27, -8740.25, -9207.15, -8843.91, -172331.72, -154983.34, -157166.89, -156917.56, 0.00, 0.00, 0.00
172, -8560.85, -8702.12, -9169.67, -8807.73, -172293.63, -154945.84, -157126.72, -156877.03, 0.00, 0.00, 0.00
173, -8536.11, -8679.18, -9146.69, -8785.67, -172270.59, -154923.36, -157102.94, -156853.41, 0.00, 0.00, 0.00
174, -8576.01, -8716.04, -9182.81, -8820.65, -172307.38, -154959.92, -157141.83, -156892.77, 0.00, 0.00, 0.00
175, -8603.41, -8741.34, -9207.85, -8844.76, -172332.59, -154984.83, -157168.31, -156919.30, 0.02, -0.04, 0.99
176, -8567.20, -8707.86, -9174.99, -8813.07, -172299.13, -154951.83, -157133.25, -156883.73, 0.00, 0.00, 0.00
177, -8536.15, -8679.32, -9146.67, -8786.05, -172270.61, -154924.05, -157103.44, -156853.92, 0.00, 0.00, 0.00
178, -8568.70, -8709.42, -9176.20, -8814.75, -172300.70, -154954.05, -157135.27, -156886.16, 0.00, 0.00, 0.00
179, -8605.24, -8743.13, -9209.46, -8846.82, -172334.41, -154987.34, -157170.69, -156921.67, 0.00, 0.00, 0.00
180, -8577.95, -8717.85, -9184.76, -8822.84, -172309.06, -154962.36, -157144.17, -156894.75, 0.00, 0.00, 0.00
181, -8536.96, -8679.94, -9147.27, -8786.63, -172271.14, -154925.14, -157104.53, -156854.91, 0.00, 0.00, 0.00
182, -8559.09, -8700.42, -9167.14, -8806.01, -172291.53, -154945.63, -157126.25, -156877.05, 0.00, 0.00, 0.00
183, -8601.49, -8739.51, -9205.68, -8843.18, -172330.63, -154984.11, -157167.38, -156918.45, 0.00, 0.00, 0.00
184, -8585.95, -8725.27, -9191.80, -8829.81, -172316.41, -154969.98, -157152.41, -156902.95, 0.03, -0.04, 0.99
185, -8543.48, -8686.25, -9153.31, -8792.77, -172277.34, -154931.80, -157111.39, -156861.66, 0.00, 0.00, 0.00
186, -8553.99, -8695.92, -9162.54, -8801.94, -172287.00, -154941.66, -157121.89, -156872.50, 0.00, 0.00, 0.00
187, -8598.94, -8737.23, -9203.20, -8841.10, -172328.23, -154982.50, -157165.44, -156916.44, 0.00, 0.00, 0.00
188, -8592.43, -8731.08, -9197.23, -8835.11, -172321.97, -154976.19, -157158.91, -156909.63, 0.00, 0.00, 0.00
189, -8546.88, -8689.11, -9155.99, -8795.39, -172280.00, -154935.00, -157114.94, -156865.23, 0.00, 0.00, 0.00
190, -8548.16, -8690.56, -9157.20, -8796.89, -172281.52, -154936.78, -157116.64, -156867.16, 0.00, 0.00, 0.00
191, -8591.88, -8730.75, -9196.60, -8834.86, -172321.61, -154976.53, -157159.05, -156909.91, 0.00, 0.00, 0.00
192, -8595.39, -8733.70, -9199.46, -8837.48, -172324.50, -154979.28, -157162.28, -156913.05, 0.00, 0.00, 0.00
193, -8550.59, -8692.44, -9159.01, -8798.45, -172283.39, -154938.73, -157119.14, -156869.48, 0.00, 0.00, 0.00
194, -8538.25, -8680.99, -9147.58, -8787.59, -172271.89, -154927.72, -157107.33, -156857.78, 0.03, -0.04, 0.99
195, -8580.43, -8719.77, -9185.52, -8824.38, -172310.58, -154966.14, -157148.20, -156899.23, 0.00, 0.00, 0.00
196, -8599.39, -8737.34, -9202.91, -8841.03, -172328.08, -154983.39, -157166.58, -156917.52, 0.00, 0.00, 0.00
197, -8560.05, -8701.15, -9167.37, -8806.79, -172291.83, -154947.70, -157128.59, -156878.91, 0.00, 0.00, 0.00
198, -8537.45, -8680.39, -9146.80, -8787.16, -172271.08, -154927.56, -157107.08, -156857.25, 0.00, 0.00, 0.00
199, -8573.59, -8713.72, -9179.39, -8818.86, -172304.31, -154960.66, -157142.34, -156893.02, 0.00, 0.00, 0.00
200, -8603.45, -8741.23, -9206.68, -8845.12, -172331.72, -154987.89, -157171.22, -156922.03, 0.00, 0.00, 0.00
201, -8567.62, -8708.04, -9174.12, -8813.56, -172298.50, -154955.09, -157136.42, -156886.75, 0.00, 0.00, 0.00
202, -8530.59, -8673.57, -9139.92, -8780.70, -172264.16, -154921.34, -157100.61, -156850.83, 0.00, 0.00, 0.00
203, -8558.50, -8699.34, -9165.04, -8805.00, -172289.78, -154946.91, -157127.84, -156878.64, 0.00, 0.00, 0.00
204, -8597.31, -8735.26, -9200.45, -8839.06, -172325.58, -154982.34, -157165.44, -156916.34, 0.03, -0.05, 0.99
205, -8571.22, -8711.01, -9176.67, -8815.95, -172301.36, -154958.30, -157140.06, -156890.52, 0.00, 0.00, 0.00
206, -8529.98, -8673.04, -9139.20, -8779.90, -172263.34, -154921.05, -157100.34, -156850.61, 0.00, 0.00, 0.00
207, -8550.35, -8691.86, -9157.58, -8797.89, -172282.09, -154939.97, -157120.33, -156871.00, 0.00, 0.00, 0.00
208, -8597.91, -8736.00, -9201.12, -8839.94, -172326.25, -154983.70, -157166.64, -156917.52, 0.00, 0.00, 0.00
209, -8584.72, -8723.80, -9189.23, -8828.36, -172314.16, -154971.61, -157153.83, -156904.38, 0.00, 0.00, 0.00
210, -8537.94, -8680.52, -9146.60, -8787.30, -172270.91, -154929.13, -157108.66, -156858.70, 0.00, 0.00, 0.00
211, -8544.83, -8686.78, -9152.61, -8793.22, -172277.19, -154935.63, -157115.50, -156865.92, 0.00, 0.00, 0.00
212, -8592.59, -8730.93, -9195.87, -8835.13, -172321.22, -154979.14, -157161.84, -156912.66, 0.00, 0.00, 0.00
213, -8591.18, -8729.74, -9194.77, -8833.90, -172319.88, -154977.84, -157160.50, -156910.89, 0.00, 0.00, 0.00
214, -8542.64, -8684.79, -9150.56, -8791.12, -172274.98, -154933.64, -157113.45, -156863.47, 0.03, -0.05, 0.99
215, -8537.49, -8679.90, -9145.69, -8786.65, -172270.13, -154929.30, -157108.70, -156859.16, 0.00, 0.00, 0.00
216, -8583.49, -8722.43, -9187.33, -8827.04, -172312.56, -154971.33, -157153.48, -156904.34, 0.00, 0.00, 0.00
217, -8594.94, -8733.07, -9197.92, -8837.14, -172323.14, -154981.58, -157164.50, -156915.09, 0.00, 0.00, 0.00
218, -8549.52, -8691.12, -9156.73, -8797.22, -172281.08, -154940.30, -157120.58, -156870.61, 0.00, 0.00, 0.00
219, -8534.66, -8677.57, -9143.27, -8784.44, -172267.61, -154927.31, -157106.63, -156856.83, 0.00, 0.00, 0.00
220, -8577.24, -8716.84, -9181.78, -8821.88, -172306.84, -154966.22, -157148.03, -156898.72, 0.00, 0.00, 0.00
221, -8598.13, -8736.04, -9200.69, -8840.09, -172325.94, -154985.16, -157168.20, -156918.83, 0.00, 0.00, 0.00
222, -8557.92, -8698.87, -9164.13, -8804.62, -172288.72, -154948.45, -157129.14, -156879.31, 0.00, 0.00, 0.00
223, -8529.56, -8672.66, -9138.15, -8779.68, -172262.55, -154922.81, -157101.83, -156852.02, 0.00, 0.00, 0.00
224, -8566.57, -8706.94, -9171.75, -8812.26, -172296.72, -154956.95, -157138.08, -156888.55, 0.03, -0.04, 0.98
225, -8596.61, -8734.53, -9198.95, -8838.42, -172324.30, -154984.08, -157167.11, -156917.64, 0.00, 0.00, 0.00
226, -8566.42, -8706.76, -9171.72, -8812.17, -172296.66, -154956.72, -157137.91, -156888.05, 0.00, 0.00, 0.00
227, -8532.35, -8675.40, -9140.88, -8782.47, -172265.30, -154926.16, -157105.20, -156855.28, 0.00, 0.00, 0.00
228, -8557.63, -8698.72, -9163.48, -8804.44, -172288.41, -154949.38, -157129.83, -156880.36, 0.00, 0.00, 0.00
229, -8595.16, -8733.07, -9197.32, -8837.01, -172322.69, -154983.23, -157166.05, -156916.80, 0.00, 0.00, 0.00
230, -8573.44, -8713.02, -9177.65, -8817.92, -172302.59, -154963.36, -157144.97, -156895.30, 0.00, 0.00, 0.00
231, -8529.27, -8672.14, -9137.42, -8779.03, -172261.78, -154923.22, -157102.31, -156852.38, 0.00, 0.00, 0.00
232, -8546.10, -8687.81, -9152.57, -8794.00, -172277.45, -154938.94, -157118.97, -156869.31, 0.00, 0.00, 0.00
233, -8593.40, -8731.66, -9195.64, -8835.78, -172321.08, -154982.19, -157164.94, -156915.59, 0.00, 0.00, 0.00
234, -8583.32, -8722.48, -9186.75, -8826.97, -172311.83, -154973.09, -157155.17, -156905.53, 0.03, -0.05, 0.98
235, -8536.51, -8679.32, -9144.25, -8785.96, -172268.70, -154930.64, -157109.98, -156859.98, 0.00, 0.00, 0.00
236, -8539.95, -8682.40, -9146.98, -8788.75, -172271.70, -154933.97, -157113.63, -156863.94, 0.00, 0.00, 0.00
237, -8586.00, -8724.80, -9188.67, -8829.03, -172314.20, -154975.97, -157158.39, -156909.11, 0.00, 0.00, 0.00
238, -8587.25, -8725.72, -9189.85, -8829.97, -172315.16, -154976.89, -157159.31, -156909.83, 0.00, 0.00, 0.00
239, -8540.51, -8682.60, -9147.32, -8789.00, -172272.02, -154934.39, -157114.03, -156864.06, 0.00, 0.00, 0.00
240, -8534.95, -8677.66, -9142.22, -8784.37, -172267.09, -154929.86, -157109.02, -156859.38, 0.00, 0.00, 0.00
241, -8579.90, -8719.13, -9182.97, -8823.71, -172308.34, -154970.92, -157152.78, -156903.52, 0.00, 0.00, 0.00
242, -8592.68, -8730.90, -9194.66, -8834.88, -172320.13, -154982.44, -157165.17, -156915.72, 0.00, 0.00, 0.00
243, -8548.49, -8690.13, -9154.65, -8796.13, -172279.50, -154942.33, -157122.50, -156872.61, 0.00, 0.00, 0.00
244, -8530.32, -8673.42, -9137.97, -8780.21, -172262.72, -154926.19, -157105.25, -156855.34, 0.03, -0.05, 0.98
245, -8569.41, -8709.31, -9173.09, -8814.23, -172298.55, -154961.75, -157143.16, -156893.75, 0.00, 0.00, 0.00
246, -8592.73, -8730.66, -9194.19, -8834.50, -172319.92, -154982.83, -157165.70, -156916.30, 0.00, 0.00, 0.00
247, -8556.78, -8697.64, -9161.73, -8803.08, -172287.00, -154950.33, -157130.98, -156881.02, 0.00, 0.00, 0.00
248, -8527.88, -8671.05, -9135.40, -8777.84, -172260.44, -154924.45, -157103.20, -156853.23, 0.00, 0.00, 0.00
249, -8561.37, -8701.91, -9165.65, -8807.28, -172291.33, -154955.19, -157136.02, -156886.47, 0.00, 0.00, 0.00
250, -8596.10, -8734.03, -9197.32, -8837.75, -172323.39, -154986.81, -157169.81, -156920.34, 0.00, 0.00, 0.00
251, -8565.37, -8705.54, -9169.31, -8810.61, -172294.91, -154958.73, -157139.83, -156890.02, 0.00, 0.00, 0.00
252, -8525.11, -8668.21, -9132.48, -8774.94, -172257.63, -154922.14, -157101.02, -156850.88, 0.00, 0.00, 0.00
253, -8548.85, -8690.07, -9153.78, -8795.57, -172279.47, -154943.98, -157124.28, -156874.50, 0.00, 0.00, 0.00
254, -8588.01, -8726.03, -9189.18, -8829.68, -172315.42, -154979.59, -157162.16, -156912.73, 0.03, -0.04, 0.98
255, -8570.31, -8709.63, -9173.36, -8814.30, -172299.13, -154963.59, -157144.98, -156895.16, 0.00, 0.00, 0.00
0, -8527.66, -8670.44, -9134.75, -8777.22, -172260.17, -154925.20, -157104.06, -156853.92, 0.00, 0.00, 0.00
1, -8539.80, -8681.69, -9145.48, -8787.79, -172271.19, -154936.45, -157116.19, -156866.42, 0.00, 0.00, 0.00
2, -8584.72, -8723.01, -9186.21, -8826.99, -172312.41, -154977.31, -157159.78, -156910.33, 0.00, 0.00, 0.00
3, -8577.42, -8716.17, -9179.79, -8820.67, -172305.84, -154970.67, -157152.73, -156902.89, 0.00, 0.00, 0.00
4, -8530.57, -8672.97, -9137.33, -8779.59, -172262.70, -154928.30, -157107.48, -156857.31, 0.00, 0.00, 0.00
5, -8532.58, -8674.91, -9139.07, -8781.44, -172264.58, -154930.58, -157109.72, -156859.91, 0.00, 0.00, 0.00
6, -8580.61, -8719.35, -9182.70, -8823.66, -172308.94, -154974.52, -157156.50, -156907.03, 0.00, 0.00, 0.00
7, -8584.90, -8723.26, -9186.77, -8827.40, -172313.09, -154978.36, -157160.61, -156910.97, 0.03, -0.04, 0.98
8, -8537.56, -8679.50, -9143.81, -8785.84, -172269.38, -154935.38, -157114.91, -156864.84, 0.00, 0.00, 0.00
9, -8526.65, -8669.28, -9133.62, -8776.03, -172259.03, -154925.66, -157104.50, -156854.55, 0.00, 0.00, 0.00
10, -8572.14, -8711.32, -9174.83, -8815.84, -172300.92, -154967.30, -157148.72, -156899.20, 0.00, 0.00, 0.00
11, -8589.69, -8727.73, -9191.19, -8831.55, -172317.45, -154983.44, -157165.92, -156916.28, 0.00, 0.00, 0.00
12, -8545.36, -8686.60, -9150.85, -8792.46, -172276.47, -154942.94, -157122.95, -156872.83, 0.00, 0.00, 0.00
13, -8520.57, -8663.45, -9127.80, -8770.24, -172253.33, -154920.41, -157099.05, -156849.06, 0.00, 0.00, 0.00
14, -8558.46, -8698.36, -9162.02, -8803.28, -172288.25, -154955.11, -157136.06, -156886.58, 0.00, 0.00, 0.00
15, -8584.70, -8722.46, -9185.99, -8826.30, -172312.25, -154978.81, -157161.50, -156911.94, 0.00, 0.00, 0.00
16, -8549.88, -8690.51, -9154.60, -8796.01, -172280.36, -154947.23, -157127.94, -156877.80, 0.00, 0.00, 0.00
17, -8520.15, -8663.27, -9127.65, -8770.24, -172253.17, -154920.66, -157099.45, -156849.31, 0.02, -0.04, 0.99
18, -8551.84, -8692.64, -9156.37, -8798.03, -172282.38, -154949.91, -157130.39, -156880.78, 0.00, 0.00, 0.00
19, -8584.92, -8722.79, -9186.16, -8826.59, -172312.59, -154979.70, -157162.36, -156912.91, 0.00, 0.00, 0.00
20, -8558.06, -8697.82, -9161.82, -8802.92, -172287.83, -154955.20, -157136.25, -156886.36, 0.00, 0.00, 0.00
21, -8519.64, -8662.62, -9127.13, -8769.51, -172252.63, -154920.73, -157099.47, -156849.31, 0.00, 0.00, 0.00
22, -8540.40, -8681.89, -9145.73, -8787.61, -172271.64, -154939.97, -157119.86, -156870.14, 0.00, 0.00, 0.00
23, -8584.79, -8722.86, -9186.25, -8826.68, -172312.63, -154980.55, -157162.98, -156913.42, 0.00, 0.00, 0.00
24, -8570.53, -8709.80, -9173.65, -8814.43, -172299.72, -154967.75, -157149.23, -156899.31, 0.00, 0.00, 0.00
25, -8525.38, -8668.05, -9132.54, -8774.83, -172258.11, -154926.80, -157105.56, -156855.42, 0.00, 0.00, 0.00
26, -8533.94, -8675.72, -9139.90, -8782.07, -172265.63, -154934.70, -157114.08, -156864.17, 0.00, 0.00, 0.00
27, -8578.51, -8716.75, -9180.31, -8820.94, -172306.63, -154975.28, -157157.33, -156907.83, 0.03, -0.04, 0.98
28, -8573.53, -8712.06, -9175.97, -8816.47, -172302.03, -154970.63, -157152.47, -156902.64, 0.00, 0.00, 0.00
29, -8526.16, -8668.27, -9132.99, -8774.87, -172258.36, -154927.69, -157106.73, -156856.48, 0.00, 0.00, 0.00
30, -8524.49, -8666.80, -9131.13, -8773.33, -172256.81, -154926.47, -157105.42, -156855.38, 0.00, 0.00, 0.00
31, -8569.57, -8708.26, -9171.68, -8812.60, -172298.13, -154967.34, -157149.03, -156899.47, 0.00, 0.00, 0.00
32, -8576.74, -8714.88, -9178.45, -8818.92, -172304.77, -154973.89, -157156.03, -156906.20, 0.00, 0.00, 0.00
33, -8529.85, -8671.56, -9135.94, -8777.87, -172261.67, -154931.42, -157110.77, -156860.56, 0.00, 0.00, 0.00
34, -8518.79, -8661.55, -9125.90, -8768.46, -172251.67, -154921.92, -157100.48, -156850.48, 0.00, 0.00, 0.00
35, -8562.22, -8701.62, -9165.20, -8806.43, -172291.52, -154961.59, -157142.73, -156893.13, 0.00, 0.00, 0.00
36, -8580.59, -8718.43, -9181.98, -8822.55, -172308.30, -154978.19, -157160.34, -156910.61, 0.00, 0.00, 0.00
37, -8541.27, -8682.22, -9146.47, -8788.28, -172272.20, -154942.44, -157122.30, -156872.09, 0.03, -0.04, 0.98
38, -8517.78, -8660.56, -9125.03, -8767.65, -172250.61, -154921.44, -157099.83, -156849.58, 0.00, 0.00, 0.00
39, -8554.03, -8694.07, -9157.75, -8799.30, -172283.95, -154954.67, -157135.19, -156885.53, 0.00, 0.00, 0.00
40, -8583.20, -8721.09, -9184.42, -8824.96, -172310.86, -154981.20, -157163.52, -156913.89, 0.00, 0.00, 0.00
41, -8550.17, -8690.58, -9154.56, -8796.01, -172280.36, -154951.05, -157131.44, -156881.34, 0.00, 0.00, 0.00
42, -8512.97, -8656.03, -9120.34, -8763.02, -172245.94, -154917.23, -157095.63, -156845.36, 0.00, 0.00, 0.00
43, -8541.96, -8682.89, -9146.58, -8788.48, -172272.75, -154944.05, -157124.11, -156874.28, 0.00, 0.00, 0.00
44, -8580.30, -8718.21, -9181.47, -8822.05, -172307.92, -154978.83, -157161.23, -156911.55, 0.00, 0.00, 0.00
45, -8556.00, -8695.61, -9159.50, -8800.69, -172285.34, -154956.61, -157137.47, -156887.50, 0.00, 0.00, 0.00
46, -8515.77, -8658.51, -9122.89, -8765.48, -172248.33, -154920.31, -157098.67, -156848.47, 0.00, 0.00, 0.00
47, -8535.93, -8677.26, -9141.21, -8783.32, -172266.97, -154939.14, -157118.52, -156868.66, 0.03, -0.04, 0.99
48, -8578.24, -8716.26, -9179.53, -8820.22, -172305.84, -154977.53, -157159.56, -156909.94, 0.00, 0.00, 0.00
49, -8565.46, -8704.57, -9168.19, -8809.27, -172294.27, -154965.91, -157147.27, -156897.23, 0.00, 0.00, 0.00
50, -8519.30, -8661.99, -9126.26, -8768.72, -172251.64, -154924.09, -157102.66, -156852.41, 0.00, 0.00, 0.00
51, -8526.65, -8668.70, -9132.63, -8775.07, -172258.39, -154930.98, -157109.98, -156860.02, 0.00, 0.00, 0.00
52, -8575.07, -8713.38, -9176.58, -8817.52, -172303.05, -154975.22, -157156.97, -156907.39, 0.00, 0.00, 0.00
53, -8575.94, -8714.48, -9177.83, -8818.63, -172303.98, -154976.17, -157157.88, -156908.08, 0.00, 0.00, 0.00
54, -8529.18, -8671.31, -9135.47, -8777.80, -172260.89, -154933.72, -157112.73, -156862.50, 0.00, 0.00, 0.00
55, -8525.16, -8667.60, -9131.60, -8774.22, -172257.09, -154930.42, -157109.05, -156859.02, 0.00, 0.00, 0.00
56, -8570.60, -8709.60, -9172.91, -8814.05, -172298.94, -154971.88, -157153.23, -156903.63, 0.00, 0.00, 0.00
57, -8577.08, -8715.30, -9178.81, -8819.39, -172304.77, -154977.53, -157159.52, -156909.59, 0.03, -0.05, 0.99
58, -8531.01, -8672.68, -9136.88, -8778.78, -172262.11, -154935.52, -157114.86, -156864.52, 0.00, 0.00, 0.00
59, -8513.91, -8656.81, -9120.99, -8763.65, -172246.20, -154920.22, -157098.50, -156848.31, 0.00, 0.00, 0.00
60, -8555.53, -8695.14, -9158.49, -8799.99, -172284.47, -154958.09, -157138.84, -156889.19, 0.00, 0.00, 0.00
61, -8575.60, -8713.51, -9176.78, -8817.34, -172302.86, -154976.17, -157158.28, -156908.55, 0.00, 0.00, 0.00
62, -8534.99, -8675.92, -9139.90, -8781.60, -172265.33, -154939.11, -157118.97, -156868.72, 0.00, 0.00, 0.00
63, -8509.89, -8653.01, -9117.25, -8759.85, -172242.36, -154916.78, -157095.00, -156844.80, 0.00, 0.00, 0.00
64, -8547.62, -8687.99, -9151.54, -8793.18, -172277.16, -154951.66, -157131.89, -156882.03, 0.00, 0.00, 0.00
65, -8579.16, -8717.05, -9180.29, -8820.87, -172306.17, -154980.27, -157162.44, -156912.64, 0.00, 0.00, 0.00
66, -8548.29, -8688.53, -9152.50, -8793.87, -172277.78, -154952.03, -157132.48, -156882.28, 0.00, 0.00, 0.00
67, -8509.73, -8652.70, -9117.01, -8759.67, -172241.95, -154916.94, -157095.16, -156844.88, 0.03, -0.04, 0.99
68, -8536.20, -8677.04, -9140.88, -8782.74, -172266.20, -154941.33, -157121.11, -156871.11, 0.00, 0.00, 0.00
69, -8576.83, -8714.56, -9177.87, -8818.46, -172303.67, -154978.36, -157160.47, -156910.61, 0.00, 0.00, 0.00
70, -8554.17, -8693.60, -9157.40, -8798.56, -172282.75, -154957.63, -157138.45, -156888.25, 0.00, 0.00, 0.00
71, -8512.50, -8655.29, -9119.58, -8762.22, -172244.28, -154920.00, -157098.27, -156847.86, 0.00, 0.00, 0.00
72, -8529.09, -8670.62, -9134.60, -8776.84, -172259.56, -154935.56, -157114.66, -156864.63, 0.00, 0.00, 0.00
73, -8571.85, -8710.00, -9173.38, -8814.14, -172298.95, -154974.34, -157156.03, -156906.42, 0.00, 0.00, 0.00
74, -8562.10, -8701.04, -9164.71, -8805.65, -172289.86, -154965.33, -157146.53, -156896.48, 0.00, 0.00, 0.00
75, -8517.13, -8659.62, -9123.98, -8766.38, -172248.39, -154924.72, -157103.09, -156852.69, 0.00, 0.00, 0.00
76, -8523.32, -8665.46, -9129.53, -8771.83, -172254.06, -154930.64, -157109.31, -156859.22, 0.00, 0.00, 0.00
77, -8567.98, -8706.41, -9169.76, -8810.70, -172294.92, -154971.17, -157152.45, -156902.80, 0.03, -0.04, 0.98
78, -8568.67, -8707.12, -9170.63, -8811.33, -172295.58, -154971.72, -157153.17, -156903.14, 0.00, 0.00, 0.00
79, -8521.13, -8663.18, -9127.40, -8769.59, -172251.70, -154928.42, -157107.09, -156856.80, 0.00, 0.00, 0.00
80, -8514.36, -8656.90, -9121.12, -8763.72, -172245.36, -154922.53, -157100.84, -156850.72, 0.00, 0.00, 0.00
81, -8562.04, -8701.06, -9164.57, -8805.78, -172289.34, -154966.30, -157147.27, -156897.48, 0.00, 0.00, 0.00
82, -8575.04, -8713.04, -9176.40, -8817.14, -172301.25, -154977.94, -157159.73, -156909.83, 0.00, 0.00, 0.00
83, -8529.96, -8671.27, -9135.47, -8777.33, -172259.53, -154936.86, -157115.92, -156865.70, 0.00, 0.00, 0.00
84, -8512.37, -8655.18, -9119.38, -8762.02, -172243.30, -154921.30, -157099.09, -156848.88, 0.00, 0.00, 0.00
85, -8551.91, -8691.52, -9155.12, -8796.55, -172279.48, -154957.28, -157137.61, -156887.78, 0.00, 0.00, 0.00
86, -8574.53, -8712.24, -9175.66, -8816.18, -172300.11, -154977.53, -157159.42, -156909.48, 0.03, -0.04, 0.98
87, -8535.26, -8675.87, -9140.01, -8781.53, -172263.81, -154941.66, -157121.34, -156870.89, 0.00, 0.00, 0.00
88, -8507.05, -8649.88, -9114.33, -8756.88, -172237.86, -154916.25, -157094.11, -156843.73, 0.00, 0.00, 0.00
89, -8542.39, -8682.74, -9146.47, -8788.06, -172270.47, -154948.80, -157128.59, -156878.66, 0.00, 0.00, 0.00
90, -8575.81, -8713.56, -9176.87, -8817.36, -172301.20, -154979.17, -157161.06, -156911.16, 0.00, 0.00, 0.00
91, -8546.48, -8686.47, -9150.42, -8791.63, -172274.03, -154952.33, -157132.53, -156882.22, 0.00, 0.00, 0.00
92, -8505.87, -8648.76, -9113.28, -8755.74, -172236.30, -154915.22, -157093.22, -156842.77, 0.00, 0.00, 0.00
93, -8532.46, -8673.44, -9137.42, -8779.30, -172260.83, -154939.94, -157119.25, -156869.25, 0.00, 0.00, 0.00
94, -8574.02, -8711.79, -9175.26, -8815.66, -172299.06, -154977.73, -157159.45, -156909.70, 0.00, 0.00, 0.00
95, -8552.38, -8691.61, -9155.52, -8796.35, -172278.88, -154957.64, -157138.28, -156888.13, 0.00, 0.00, 0.00
96, -8508.19, -8650.95, -9115.42, -8757.75, -172238.14, -154917.67, -157095.75, -156845.11, 0.03, -0.04, 0.99
97, -8523.77, -8665.50, -9129.59, -8771.74, -172252.58, -154932.25, -157111.08, -156860.89, 0.00, 0.00, 0.00
98, -8567.33, -8705.51, -9168.93, -8809.58, -172292.42, -154971.72, -157153.30, -156903.39, 0.00, 0.00, 0.00
99, -8558.91, -8697.73, -9161.40, -8801.96, -172284.52, -154963.92, -157144.97, -156894.75, 0.00, 0.00, 0.00
100, -8512.93, -8655.24, -9119.76, -8761.64, -172242.02, -154922.19, -157100.45, -156849.98, 0.00, 0.00, 0.00
101, -8515.14, -8657.25, -9121.55, -8763.65, -172244.03, -154924.52, -157102.81, -156852.63, 0.00, 0.00, 0.00
102, -8560.54, -8699.05, -9162.56, -8803.35, -172285.66, -154965.73, -157146.81, -156896.98, 0.00, 0.00, 0.00
103, -8563.44, -8701.53, -9165.31, -8805.71, -172288.11, -154968.03, -157149.55, -156899.31, 0.00, 0.00, 0.00
104, -8520.51, -8662.17, -9126.71, -8768.52, -172248.81, -154929.34, -157108.08, -156857.45, 0.00, 0.00, 0.00
105, -8508.84, -8651.40, -9115.64, -8758.11, -172237.86, -154918.89, -157096.89, -156846.48, 0.00, 0.00, 0.00
106, -8550.62, -8689.82, -9153.31, -8794.45, -172276.17, -154956.95, -157137.42, -156887.53, 0.03, -0.04, 0.99
107, -8565.99, -8703.93, -9167.48, -8807.79, -172290.19, -154970.70, -157152.20, -156902.25, 0.00, 0.00, 0.00
108, -8525.07, -8666.24, -9130.49, -8772.05, -172252.45, -154933.53, -157112.58, -156862.14, 0.00, 0.00, 0.00
109, -8505.33, -8648.20, -9112.58, -8754.98, -172234.36, -154916.11, -157093.73, -156843.23, 0.00, 0.00, 0.00
110, -8543.48, -8683.29, -9147.05, -8788.33, -172269.36, -154950.88, -157130.81, -156880.83, 0.00, 0.00, 0.00
111, -8571.00, -8708.62, -9172.11, -8812.38, -172294.58, -154975.70, -157157.36, -156907.44, 0.00, 0.00, 0.00
112, -8533.81, -8674.22, -9138.33, -8779.70, -172260.13, -154941.77, -157121.31, -156870.89, 0.00, 0.00, 0.00
113, -8501.66, -8644.63, -9109.03, -8751.56, -172230.59, -154912.92, -157090.48, -156840.00, 0.00, 0.00, 0.00
114, -8533.78, -8674.31, -9138.06, -8779.79, -172260.08, -154942.33, -157121.77, -156871.72, 0.00, 0.00, 0.00
115, -8570.26, -8707.93, -9171.17, -8811.79, -172293.59, -154975.45, -157156.98, -156907.05, 0.00, 0.00, 0.00
116, -8543.26, -8683.03, -9146.96, -8788.10, -172268.63, -154950.84, -157130.72, -156880.42, 0.02, -0.04, 0.99
117, -8503.81, -8646.77, -9111.22, -8753.64, -172232.39, -154915.31, -157092.84, -156842.30, 0.00, 0.00, 0.00
118, -8526.03, -8667.31, -9131.27, -8773.15, -172252.80, -154935.84, -157114.67, -156864.52, 0.00, 0.00, 0.00
119, -8569.57, -8707.52, -9170.90, -8811.26, -172292.94, -154975.45, -157156.83, -156907.00, 0.00, 0.00, 0.00
120, -8554.68, -8693.87, -9157.71, -8798.43, -172279.31, -154961.94, -157142.34, -156892.08, 0.00, 0.00, 0.00
121, -8506.27, -8649.03, -9113.41, -8755.69, -172234.41, -154917.80, -157095.56, -156844.91, 0.00, 0.00, 0.00
122, -8517.56, -8659.42, -9123.40, -8765.53, -172244.69, -154928.30, -157106.58, -156856.33, 0.00, 0.00, 0.00
123, -8563.02, -8701.29, -9164.66, -8805.29, -172286.30, -154969.48, -157150.66, -156900.72, 0.00, 0.00, 0.00
124, -8556.78, -8695.50, -9159.10, -8799.64, -172280.47, -154963.67, -157144.58, -156894.42, 0.00, 0.00, 0.00
125, -8511.14, -8653.41, -9117.75, -8759.80, -172238.45, -154922.42, -157100.45, -156849.88, 0.00, 0.00, 0.00
126, -8509.87, -8652.20, -9116.36, -8758.75, -172237.22, -154921.52, -157099.34, -156849.06, 0.03, -0.05, 0.98
127, -8557.16, -8695.86, -9159.30, -8800.33, -172280.80, -154964.61, -157145.34, -156895.52, 0.00, 0.00, 0.00
128, -8565.39, -8703.57, -9167.08, -8807.64, -172288.38, -154972.11, -157153.28, -156903.23, 0.00, 0.00, 0.00
129, -8518.88, -8660.61, -9124.90, -8766.82, -172245.33, -154929.75, -157108.22, -156857.63, 0.00, 0.00, 0.00
130, -8505.51, -8648.20, -9112.49, -8754.98, -172232.91, -154917.83, -157095.45, -156845.00, 0.00, 0.00, 0.00
131, -8550.59, -8689.87, -9153.46, -8794.67, -172274.50, -154959.13, -157139.23, -156889.38, 0.00, 0.00, 0.00
132, -8566.89, -8704.82, -9168.24, -8808.73, -172289.30, -154973.67, -157154.91, -156905.03, 0.00, 0.00, 0.00
133, -8528.26, -8669.41, -9133.46, -8775.12, -172253.80, -154938.70, -157117.64, -156867.17, 0.00, 0.00, 0.00
134, -8502.76, -8645.72, -9109.99, -8752.52, -172230.05, -154915.59, -157093.11, -156842.59, 0.00, 0.00, 0.00
135, -8539.77, -8679.92, -9143.41, -8784.95, -172263.95, -154949.42, -157129.11, -156879.09, 0.00, 0.00, 0.00
136, -8569.95, -8707.84, -9171.08, -8811.59, -172291.75, -154976.86, -157158.31, -156908.34, 0.03, -0.05, 0.99
137, -8536.44, -8676.75, -9140.68, -8782.16, -172260.89, -154946.25, -157125.67, -156875.25, 0.00, 0.00, 0.00
138, -8501.98, -8644.92, -9109.34, -8751.96, -172229.06, -154915.13, -157092.48, -156841.92, 0.00, 0.00, 0.00
139, -8529.78, -8670.60, -9134.29, -8776.28, -172254.47, -154940.59, -157119.61, -156869.52, 0.00, 0.00, 0.00
140, -8567.67, -8705.54, -9168.77, -8809.43, -172289.28, -154974.89, -157156.27, -156906.33, 0.00, 0.00, 0.00
141, -8545.03, -8684.64, -9148.41, -8789.69, -172268.42, -154954.25, -157134.20, -156883.80, 0.00, 0.00, 0.00
142, -8503.77, -8646.64, -9110.88, -8753.52, -172230.33, -154917.00, -157094.47, -156843.80, 0.00, 0.00, 0.00
143, -8522.41, -8663.83, -9127.71, -8769.82, -172247.36, -154934.17, -157112.73, -156862.50, 0.00, 0.00, 0.00
144, -8564.29, -8702.36, -9165.65, -8806.36, -172285.83, -154972.16, -157153.36, -156903.42, 0.00, 0.00, 0.00
145, -8549.41, -8688.48, -9152.08, -8793.02, -172271.91, -154958.27, -157138.77, -156888.47, 0.00, 0.00, 0.00
146, -8505.64, -8648.16, -9112.47, -8754.93, -172231.63, -154918.69, -157096.44, -156845.78, 0.03, -0.05, 0.98
147, -8513.58, -8655.58, -9119.53, -8761.97, -172238.92, -154926.34, -157104.38, -156854.08, 0.00, 0.00, 0.00
148, -8558.15, -8696.48, -9159.79, -8800.66, -172279.66, -154966.69, -157147.52, -156897.53, 0.00, 0.00, 0.00
149, -8557.28, -8695.70, -9159.34, -8799.93, -172278.95, -154965.83, -157146.59, -156896.33, 0.00, 0.00, 0.00
150, -8511.48, -8653.66, -9118.04, -8759.98, -172236.81, -154924.56, -157102.45, -156851.81, 0.00, 0.00, 0.00
151, -8507.88, -8650.26, -9114.48, -8756.81, -172233.39, -154921.55, -157099.16, -156848.83, 0.00, 0.00, 0.00
152, -8555.73, -8694.63, -9158.09, -8799.08, -172277.63, -154965.41, -157145.70, -156895.81, 0.00, 0.00, 0.00
153, -8567.62, -8705.54, -9169.13, -8809.74, -172288.53, -154976.13, -157157.17, -156906.92, 0.00, 0.00, 0.00
154, -8524.08, -8665.48, -9129.84, -8771.74, -172248.48, -154936.67, -157115.02, -156864.42, 0.00, 0.00, 0.00
155, -8506.63, -8649.37, -9113.75, -8756.23, -172232.30, -154920.97, -157098.31, -156847.92, 0.00, 0.00, 0.00
156, -8547.58, -8687.00, -9150.58, -8791.97, -172269.77, -154958.20, -157137.98, -156888.05, 0.03, -0.04, 0.98
157, -8566.91, -8704.60, -9168.04, -8808.51, -172287.23, -154975.38, -157156.55, -156906.38, 0.00, 0.00, 0.00
158, -8527.12, -8667.83, -9132.05, -8773.57, -172250.42, -154939.16, -157117.98, -156867.33, 0.00, 0.00, 0.00
159, -8499.72, -8642.53, -9106.97, -8749.43, -172224.97, -154914.38, -157091.59, -156840.98, 0.00, 0.00, 0.00
160, -8535.97, -8676.14, -9139.87, -8781.26, -172258.56, -154947.73, -157126.97, -156876.89, 0.00, 0.00, 0.00
161, -8565.55, -8703.14, -9166.65, -8806.83, -172285.47, -154974.34, -157155.38, -156905.48, 0.00, 0.00, 0.00
162, -8533.78, -8673.79, -9138.00, -8779.00, -172256.22, -154945.39, -157124.58, -156874.22, 0.00, 0.00, 0.00
163, -8497.93, -8640.69, -9105.36, -8747.60, -172223.09, -154913.03, -157090.05, -156839.45, 0.00, 0.00, 0.00
164, -8524.15, -8664.92, -9128.92, -8770.53, -172247.09, -154937.06, -157115.64, -156865.44, 0.00, 0.00, 0.00
165, -8564.12, -8701.80, -9165.27, -8805.58, -172283.89, -154973.33, -157154.42, -156904.34, 0.03, -0.04, 0.98
166, -8543.55, -8682.96, -9146.80, -8787.57, -172264.94, -154954.64, -157134.45, -156883.95, 0.00, 0.00, 0.00
167, -8501.53, -8644.29, -9108.72, -8750.91, -172226.28, -154916.78, -157093.95, -156843.22, 0.00, 0.00, 0.00
168, -8517.96, -8659.56, -9123.45, -8765.39, -172241.33, -154931.98, -157110.14, -156859.75, 0.00, 0.00, 0.00
169, -8560.32, -8698.45, -9161.67, -8802.21, -172280.00, -154970.25, -157151.06, -156900.95, 0.00, 0.00, 0.00
170, -8548.33, -8687.12, -9150.83, -8791.48, -172268.78, -154959.09, -157139.33, -156888.88, 0.00, 0.00, 0.00
171, -8501.06, -8643.51, -9107.89, -8750.01, -172225.23, -154916.22, -157093.67, -156842.92, 0.00, 0.00, 0.00
172, -8506.22, -8648.29, -9112.52, -8754.60, -172229.95, -154921.25, -157098.88, -156848.52, 0.00, 0.00, 0.00
173, -8554.33, -8692.84, -9156.30, -8796.95, -172274.45, -154965.31, -157145.66, -156895.67, 0.00, 0.00, 0.00
174, -8551.51, -8689.93, -9153.60, -8793.96, -172271.45, -154962.20, -157142.75, -156892.45, 0.00, 0.00, 0.00
175, -8503.68, -8645.74, -9110.06, -8751.85, -172227.22, -154918.69, -157096.45, -156845.67, 0.03, -0.04, 0.98
176, -8498.16, -8640.74, -9105.00, -8747.18, -172222.13, -154914.09, -157091.34, -156840.83, 0.00, 0.00, 0.00
177, -8547.28, -8686.31, -9149.95, -8790.74, -172267.61, -154959.31, -157139.22, -156889.22, 0.00, 0.00, 0.00
178, -8561.77, -8699.79, -9163.34, -8803.61, -172281.08, -154972.39, -157153.23, -156903.03, 0.00, 0.00, 0.00
179, -8515.84, -8657.30, -9121.55, -8763.13, -172238.45, -154930.42, -157108.64, -156857.88, 0.00, 0.00, 0.00
180, -8496.72, -8639.62, -9104.00, -8746.21, -172220.72, -154913.25, -157090.27, -156839.69, 0.00, 0.00, 0.00
181, -8537.00, -8676.79, -9140.39, -8781.46, -172257.77, -154950.09, -157129.52, -156879.38, 0.00, 0.00, 0.00
182, -8560.32, -8698.14, -9161.51, -8801.76, -172279.11, -154971.08, -157151.94, -156901.75, 0.00, 0.00, 0.00
183, -8523.95, -8664.70, -9128.72, -8770.06, -172245.59, -154938.02, -157116.75, -156866.03, 0.00, 0.00, 0.00
184, -8494.22, -8637.32, -9101.65, -8744.11, -172218.11, -154911.20, -157088.14, -156837.42, 0.00, 0.00, 0.00
185, -8527.12, -8667.63, -9131.38, -8772.99, -172248.38, -154941.33, -157120.23, -156870.11, 0.03, -0.04, 0.98
186, -8562.15, -8699.95, -9163.30, -8803.73, -172280.58, -154973.17, -157154.08, -156904.06, 0.00, 0.00, 0.00
187, -8532.78, -8672.75, -9136.70, -8777.82, -172253.42, -154946.44, -157125.47, -156874.97, 0.00, 0.00, 0.00
188, -8495.52, -8638.48, -9102.86, -8745.25, -172219.16, -154912.83, -157089.59, -156838.97, 0.00, 0.00, 0.00
189, -8521.02, -8662.22, -9125.99, -8767.78, -172242.63, -154936.41, -157114.63, -156864.41, 0.00, 0.00, 0.00
190, -8562.30, -8700.24, -9163.46, -8804.02, -172280.63, -154974.03, -157154.59, -156904.61, 0.00, 0.00, 0.00
191, -8544.71, -8684.01, -9147.76, -8788.68, -172264.42, -154957.98, -157137.47, -156887.05, 0.00, 0.00, 0.00
192, -8499.52, -8642.15, -9106.53, -8748.90, -172222.59, -154916.78, -157093.69, -156843.03, 0.00, 0.00, 0.00
193, -8511.83, -8653.59, -9117.34, -8759.56, -172233.86, -154928.27, -157106.00, -156855.63, 0.00, 0.00, 0.00
194, -8556.90, -8695.12, -9158.27, -8798.99, -172275.27, -154969.27, -157149.77, -156899.66, 0.00, 0.00, 0.00
195, -8551.80, -8690.63, -9154.09, -8794.81, -172270.72, -154964.77, -157144.81, -156894.41, 0.03, -0.04, 0.98
196, -8505.87, -8648.27, -9112.43, -8754.51, -172228.33, -154923.11, -157100.28, -156849.63, 0.00, 0.00, 0.00
197, -8506.87, -8649.21, -9113.03, -8755.27, -172229.11, -154924.27, -157101.48, -156851.03, 0.00, 0.00, 0.00
198, -8551.31, -8689.98, -9153.15, -8794.00, -172269.78, -154964.69, -157144.63, -156894.52, 0.00, 0.00, 0.00
199, -8554.66, -8693.04, -9156.26, -8796.80, -172272.73, -154967.34, -157147.78, -156897.38, 0.00, 0.00, 0.00
200, -8508.77, -8650.79, -9114.73, -8756.81, -172230.48, -154925.77, -157103.45, -156852.69, 0.00, 0.00, 0.00
201, -8499.70, -8642.64, -9106.48, -8749.12, -172222.20, -154918.03, -157094.98, -156844.47, 0.00, 0.00, 0.00
202, -8541.90, -8681.31, -9144.52, -8785.67, -172260.70, -154956.28, -157135.84, -156885.70, 0.00, 0.00, 0.00
203, -8555.64, -8693.69, -9156.88, -8797.31, -172273.03, -154968.34, -157149.09, -156898.73, 0.00, 0.00, 0.00
204, -8513.82, -8655.18, -9119.11, -8760.70, -172234.53, -154930.42, -157108.53, -156857.78, 0.00, 0.00, 0.00
205, -8492.79, -8635.82, -9099.89, -8742.35, -172215.14, -154911.64, -157088.30, -156837.64, 0.03, -0.04, 0.98
206, -8532.40, -8672.41, -9135.81, -8777.13, -172251.64, -154947.97, -157126.92, -156876.66, 0.00, 0.00, 0.00
207, -8559.11, -8697.02, -9160.24, -8800.57, -172276.22, -154972.22, -157152.83, -156902.48, 0.00, 0.00, 0.00
208, -8523.82, -8664.32, -9128.30, -8769.68, -172243.67, -154940.03, -157118.61, -156867.70, 0.00, 0.00, 0.00
209, -8494.09, -8637.14, -9101.32, -8743.71, -172216.34, -154913.36, -157090.06, -156839.14, 0.00, 0.00, 0.00
210, -8526.09, -8666.80, -9130.37, -8771.96, -172245.80, -154942.75, -157121.30, -156870.89, 0.00, 0.00, 0.00
211, -8560.38, -8698.29, -9161.47, -8801.80, -172277.16, -154973.78, -157154.48, -156904.19, 0.00, 0.00, 0.00
212, -8533.49, -8673.39, -9137.17, -8778.16, -172252.34, -154949.23, -157128.38, -156877.61, 0.00, 0.00, 0.00
213, -8495.85, -8638.88, -9103.13, -8745.39, -172217.75, -154915.33, -157092.06, -156841.22, 0.00, 0.00, 0.00
214, -8516.33, -8657.79, -9121.39, -8763.20, -172236.44, -154934.16, -157112.06, -156861.66, 0.00, 0.00, 0.00
215, -8557.21, -8695.30, -9158.27, -8798.79, -172273.78, -154971.19, -157151.64, -156901.28, 0.03, -0.04, 0.99
216, -8540.20, -8679.50, -9142.89, -8783.81, -172258.00, -154955.52, -157135.02, -156884.36, 0.00, 0.00, 0.00
217, -8496.50, -8639.42, -9103.44, -8745.95, -172218.02, -154916.19, -157093.00, -156842.05, 0.00, 0.00, 0.00
218, -8507.14, -8649.14, -9112.92, -8755.27, -172227.73, -154926.13, -157103.52, -156852.91, 0.00, 0.00, 0.00
219, -8553.68, -8692.10, -9155.14, -8796.01, -172270.59, -154968.53, -157148.69, -156898.48, 0.00, 0.00, 0.00
220, -8549.63, -8688.41, -9151.70, -8792.53, -172266.94, -154964.86, -157144.73, -156894.20, 0.00, 0.00, 0.00
221, -8500.52, -8642.99, -9107.06, -8749.19, -172221.55, -154920.14, -157097.13, -156846.30, 0.00, 0.00, 0.00
222, -8497.28, -8639.87, -9103.71, -8746.15, -172218.28, -154917.36, -157094.16, -156843.55, 0.00, 0.00, 0.00
223, -8542.50, -8681.53, -9144.63, -8785.67, -172259.75, -154958.42, -157138.08, -156887.84, 0.00, 0.00, 0.00
224, -8551.98, -8690.36, -9153.51, -8794.16, -172268.58, -154967.13, -157147.31, -156896.77, 0.00, 0.00, 0.00
225, -8505.11, -8646.97, -9110.95, -8752.96, -172225.38, -154924.41, -157101.91, -156850.92, 0.03, -0.05, 0.99
226, -8491.49, -8634.37, -9098.39, -8740.92, -172212.63, -154912.16, -157088.86, -156838.20, 0.00, 0.00, 0.00
227, -8537.36, -8676.92, -9140.03, -8781.42, -172254.97, -154954.31, -157133.58, -156883.33, 0.00, 0.00, 0.00
228, -8557.68, -8695.79, -9158.72, -8799.26, -172273.73, -154972.81, -157153.19, -156902.83, 0.00, 0.00, 0.00
229, -8515.77, -8657.03, -9120.74, -8762.35, -172235.11, -154934.58, -157112.53, -156861.75, 0.00, 0.00, 0.00
230, -8489.62, -8632.89, -9096.78, -8739.33, -172210.86, -154911.02, -157087.52, -156836.64, 0.00, 0.00, 0.00
231, -8528.24, -8668.48, -9131.69, -8773.33, -172246.42, -154946.42, -157125.09, -156874.78, 0.00, 0.00, 0.00
232, -8558.71, -8696.77, -9159.68, -8800.28, -172274.55, -154974.11, -157154.63, -156904.38, 0.00, 0.00, 0.00
233, -8522.36, -8663.00, -9126.55, -8768.16, -172240.80, -154940.72, -157119.25, -156868.47, 0.00, 0.00, 0.00
234, -8488.19, -8631.46, -9095.39, -8738.21, -172209.33, -154909.97, -157086.41, -156835.61, 0.00, 0.00, 0.00
235, -8520.13, -8661.23, -9124.52, -8766.60, -172238.94, -154939.58, -157117.72, -156867.33, 0.03, -0.05, 0.99
236, -8557.03, -8695.14, -9158.05, -8798.74, -172272.75, -154973.00, -157153.36, -156903.16, 0.00, 0.00, 0.00
237, -8531.82, -8671.85, -9135.36, -8776.57, -172249.56, -154949.95, -157128.94, -156878.33, 0.00, 0.00, 0.00
238, -8491.36, -8634.61, -9098.55, -8741.12, -172212.16, -154913.39, -157089.86, -156839.09, 0.00, 0.00, 0.00
239, -8509.46, -8651.29, -9114.66, -8756.83, -172228.70, -154930.11, -157107.66, -156857.19, 0.00, 0.00, 0.00
240, -8553.14, -8691.50, -9154.33, -8795.12, -172268.84, -154969.84, -157149.98, -156899.73, 0.00, 0.00, 0.00
241, -8537.85, -8677.24, -9140.43, -8781.58, -172254.72, -154955.78, -157135.02, -156884.41, 0.00, 0.00, 0.00
242, -8491.52, -8634.52, -9098.30, -8740.87, -172211.95, -154913.77, -157090.27, -156839.38, 0.00, 0.00, 0.00
243, -8499.85, -8642.30, -9105.81, -8748.29, -172219.61, -154921.77, -157098.63, -156848.13, 0.00, 0.00, 0.00
244, -8546.84, -8685.60, -9148.48, -8789.55, -172262.83, -154964.61, -157144.27, -156894.09, 0.03, -0.04, 0.98
245, -8546.57, -8685.33, -9148.46, -8789.47, -172262.63, -154964.34, -157143.89, -156893.42, 0.00, 0.00, 0.00
246, -8498.83, -8641.27, -9105.03, -8747.62, -172218.64, -154921.02, -157097.78, -156846.86, 0.00, 0.00, 0.00
247, -8493.51, -8636.42, -9100.04, -8742.86, -172213.70, -154916.47, -157092.92, -156842.28, 0.00, 0.00, 0.00
248, -8540.74, -8680.05, -9142.89, -8784.50, -172257.25, -154959.61, -157138.92, -156888.66, 0.00, 0.00, 0.00
249, -8550.19, -8688.55, -9151.45, -8792.55, -172265.77, -154967.92, -157147.88, -156897.44, 0.00, 0.00, 0.00
250, -8504.41, -8646.24, -9109.88, -8752.27, -172223.41, -154926.16, -157103.48, -156852.63, 0.00, 0.00, 0.00
251, -8488.77, -8631.93, -9095.53, -8738.73, -172209.03, -154912.38, -157088.64, -156837.95, 0.00, 0.00, 0.00
252, -8529.29, -8669.19, -9132.10, -8773.91, -172246.22, -154949.33, -157128.00, -156877.77, 0.00, 0.00, 0.00
253, -8551.22, -8689.31, -9152.12, -8793.06, -172266.41, -154969.16, -157149.17, -156898.84, 0.00, 0.00, 0.00
254, -8511.75, -8652.90, -9116.38, -8758.49, -172230.00, -154933.22, -157111.05, -156860.11, 0.02, -0.04, 0.99
255, -8486.44, -8629.65, -9093.43, -8736.51, -172206.73, -154910.70, -157086.80, -156835.95, 0.00, 0.00, 0.00
0, -8521.13, -8661.55, -9124.61, -8766.85, -172238.61, -154942.42, -157120.58, -156870.19, 0.00, 0.00, 0.00
1, -8552.43, -8690.40, -9153.15, -8794.16, -172267.39, -154970.77, -157150.81, -156900.56, 0.00, 0.00, 0.00
2, -8518.92, -8659.29, -9122.57, -8764.50, -172236.41, -154939.98, -157118.31, -156867.48, 0.00, 0.00, 0.00
3, -8480.83, -8624.04, -9087.73, -8730.84, -172201.03, -154905.42, -157081.48, -156830.63, 0.00, 0.00, 0.00
4, -8506.13, -8647.31, -9110.41, -8752.70, -172224.13, -154928.58, -157106.19, -156855.69, 0.00, 0.00, 0.00
5, -8548.36, -8686.27, -9149.06, -8789.96, -172263.22, -154967.34, -157147.22, -156896.92, 0.00, 0.00, 0.00
6, -8527.50, -8667.16, -9130.49, -8771.85, -172244.13, -154948.36, -157127.11, -156876.47, 0.00, 0.00, 0.00
7, -8483.96, -8626.92, -9090.79, -8733.56, -172203.84, -154908.88, -157085.11, -156834.20, 0.00, 0.00, 0.00
8, -8499.76, -8641.43, -9104.85, -8747.33, -172218.27, -154923.38, -157100.53, -156850.03, 0.03, -0.04, 0.98
9, -8544.78, -8683.00, -9145.73, -8786.85, -172259.66, -154964.34, -157144.30, -156894.05, 0.00, 0.00, 0.00
10, -8537.83, -8676.88, -9140.01, -8781.26, -172253.67, -154958.38, -157137.70, -156887.09, 0.00, 0.00, 0.00
11, -8490.80, -8633.43, -9097.27, -8739.87, -172210.31, -154915.70, -157092.13, -156841.25, 0.00, 0.00, 0.00
12, -8493.30, -8635.57, -9099.15, -8741.72, -172212.31, -154918.13, -157094.72, -156844.06, 0.00, 0.00, 0.00
13, -8540.24, -8678.85, -9141.66, -8782.83, -172255.48, -154960.86, -157140.31, -156889.92, 0.00, 0.00, 0.00
14, -8541.63, -8680.05, -9143.07, -8784.06, -172256.66, -154961.94, -157141.61, -156890.94, 0.00, 0.00, 0.00
15, -8493.82, -8635.91, -9099.60, -8742.04, -172212.56, -154918.53, -157095.30, -156844.33, 0.00, 0.00, 0.00
16, -8489.93, -8632.67, -9096.27, -8739.15, -172209.25, -154915.64, -157091.88, -156841.17, 0.00, 0.00, 0.00
17, -8535.68, -8674.91, -9137.82, -8779.23, -172251.41, -154957.48, -157136.47, -156886.13, 0.00, 0.00, 0.00
18, -8547.06, -8685.17, -9148.03, -8788.79, -172261.69, -154967.56, -157147.33, -156896.86, 0.03, -0.03, 0.98
19, -8501.75, -8643.17, -9106.73, -8748.88, -172219.78, -154926.23, -157103.39, -156852.44, 0.00, 0.00, 0.00
20, -8481.28, -8624.06, -9087.79, -8730.66, -172200.61, -154907.64, -157083.72, -156832.84, 0.00, 0.00, 0.00
21, -8526.12, -8665.68, -9128.79, -8770.53, -172242.20, -154949.03, -157127.38, -156877.09, 0.00, 0.00, 0.00
22, -8551.35, -8689.02, -9151.85, -8792.68, -172265.47, -154972.06, -157151.78, -156901.39, 0.00, 0.00, 0.00
23, -8512.91, -8653.61, -9117.08, -8758.89, -172230.06, -154937.06, -157114.67, -156863.63, 0.00, 0.00, 0.00
24, -8482.40, -8625.47, -9089.14, -8731.98, -172201.88, -154909.44, -157085.38, -156834.41, 0.00, 0.00, 0.00
25, -8512.50, -8652.96, -9116.07, -8758.02, -172229.38, -154936.78, -157114.63, -156864.17, 0.00, 0.00, 0.00
26, -8548.58, -8686.36, -9149.15, -8789.91, -172262.72, -154969.84, -157149.72, -156899.23, 0.00, 0.00, 0.00
27, -8522.63, -8662.58, -9125.97, -8767.45, -172238.94, -154946.36, -157124.58, -156873.59, 0.00, 0.00, 0.00
28, -8484.63, -8627.59, -9091.44, -8734.19, -172203.80, -154912.02, -157087.88, -156836.84, 0.03, -0.03, 0.98
29, -8508.62, -8649.75, -9112.98, -8755.11, -172225.86, -154934.22, -157111.39, -156860.80, 0.00, 0.00, 0.00
30, -8547.89, -8685.80, -9148.50, -8789.20, -172261.84, -154969.69, -157149.39, -156898.95, 0.00, 0.00, 0.00
31, -8529.51, -8668.88, -9132.07, -8773.19, -172244.91, -154952.88, -157131.47, -156880.73, 0.00, 0.00, 0.00
32, -8485.35, -8628.13, -9091.93, -8734.55, -172204.22, -154913.00, -157088.91, -156837.84, 0.00, 0.00, 0.00
33, -8496.41, -8638.21, -9101.56, -8744.02, -172214.13, -154923.11, -157099.81, -156849.20, 0.00, 0.00, 0.00
34, -8542.25, -8680.48, -9143.16, -8784.17, -172256.33, -154964.77, -157144.27, -156893.92, 0.00, 0.00, 0.00
35, -8537.83, -8676.68, -9139.65, -8780.68, -172252.50, -154961.02, -157140.06, -156889.27, 0.00, 0.00, 0.00
36, -8491.70, -8634.23, -9097.92, -8740.29, -172210.08, -154919.36, -157095.59, -156844.36, 0.00, 0.00, 0.00
37, -8492.30, -8634.68, -9098.17, -8740.67, -172210.44, -154920.00, -157096.33, -156845.41, 0.00, 0.00, 0.00
38, -8540.24, -8678.94, -9141.68, -8782.76, -172254.52, -154963.80, -157142.80, -156892.34, 0.02, -0.04, 0.98
39, -8544.20, -8682.49, -9145.37, -8786.07, -172258.00, -154967.20, -157146.55, -156895.86, 0.00, 0.00, 0.00
40, -8498.96, -8640.78, -9104.42, -8746.62, -172216.41, -154926.22, -157102.83, -156851.66, 0.00, 0.00, 0.00
41, -8489.75, -8632.36, -9096.06, -8738.75, -172208.06, -154918.23, -157094.25, -156843.28, 0.00, 0.00, 0.00
42, -8533.52, -8672.68, -9135.63, -8777.06, -172248.33, -154958.14, -157136.77, -156886.23, 0.00, 0.00, 0.00
43, -8548.63, -8686.42, -9149.33, -8790.11, -172262.00, -154971.56, -157151.13, -156900.56, 0.00, 0.00, 0.00
44, -8507.27, -8648.31, -9111.98, -8753.90, -172223.78, -154934.02, -157111.05, -156859.94, 0.00, 0.00, 0.00
45, -8482.71, -8625.47, -9089.14, -8732.02, -172200.83, -154911.83, -157087.42, -156836.42, 0.00, 0.00, 0.00
46, -8522.47, -8662.28, -9125.23, -8766.93, -172237.53, -154948.23, -157126.19, -156875.58, 0.00, 0.00, 0.00
47, -8549.45, -8687.05, -9149.80, -8790.49, -172262.34, -154972.66, -157152.30, -156901.73, 0.00, 0.00, 0.00
48, -8516.73, -8657.05, -9120.43, -8762.08, -172232.41, -154943.09, -157120.63, -156869.59, 0.03, -0.04, 0.98
49, -8485.26, -8628.11, -9091.77, -8734.48, -172203.28, -154914.69, -157090.31, -156839.28, 0.00, 0.00, 0.00
50, -8515.10, -8655.51, -9118.55, -8760.56, -172230.63, -154941.89, -157119.39, -156868.83, 0.00, 0.00, 0.00
51, -8550.64, -8688.28, -9150.89, -8791.70, -172263.28, -154974.16, -157153.80, -156903.25, 0.00, 0.00, 0.00
52, -8521.18, -8660.88, -9124.05, -8765.42, -172235.78, -154947.03, -157125.06, -156874.06, 0.00, 0.00, 0.00
53, -8481.15, -8623.88, -9087.57, -8730.32, -172198.81, -154910.72, -157086.41, -156835.22, 0.00, 0.00, 0.00
54, -8501.64, -8642.66, -9105.83, -8748.12, -172217.53, -154929.45, -157106.42, -156855.64, 0.00, 0.00, 0.00
55, -8545.76, -8683.41, -9146.07, -8786.85, -172258.27, -154969.73, -157149.20, -156898.72, 0.00, 0.00, 0.00
56, -8529.67, -8668.61, -9131.72, -8772.88, -172243.41, -154955.00, -157133.61, -156882.69, 0.00, 0.00, 0.00
57, -8484.36, -8626.97, -9090.50, -8733.23, -172201.59, -154913.98, -157089.78, -156838.66, 0.00, 0.00, 0.00
58, -8493.93, -8635.66, -9098.81, -8741.48, -172210.22, -154923.00, -157099.31, -156848.53, 0.02, -0.04, 0.99
59, -8538.97, -8677.10, -9139.58, -8780.73, -172251.59, -154963.83, -157143.00, -156892.45, 0.00, 0.00, 0.00
60, -8537.94, -8676.34, -9139.05, -8780.10, -172250.78, -154962.92, -157141.91, -156891.09, 0.00, 0.00, 0.00
61, -8492.39, -8634.52, -9097.99, -8740.45, -172208.89, -154921.77, -157098.00, -156846.67, 0.00, 0.00, 0.00
62, -8491.00, -8633.29, -9096.58, -8739.31, -172207.53, -154920.88, -157096.91, -156845.92, 0.00, 0.00, 0.00
63, -8537.38, -8675.96, -9138.53, -8779.85, -172250.11, -154963.08, -157141.86, -156891.38, 0.00, 0.00, 0.00
64, -8545.21, -8683.07, -9145.73, -8786.67, -172257.16, -154970.00, -157149.30, -156898.56, 0.00, 0.00, 0.00
65, -8494.27, -8635.78, -9099.19, -8741.48, -172209.88, -154923.33, -157099.78, -156848.72, 0.00, 0.00, 0.00
66, -8480.16, -8622.83, -9086.18, -8728.94, -172196.77, -154910.75, -157086.36, -156835.34, 0.00, 0.00, 0.00
67, -8522.29, -8661.57, -9124.16, -8765.71, -172235.36, -154949.08, -157127.38, -156876.70, 0.02, -0.03, 0.98
68, -8543.13, -8680.77, -9143.29, -8784.15, -172254.70, -154968.08, -157147.56, -156896.77, 0.00, 0.00, 0.00
69, -8503.32, -8644.16, -9107.40, -8749.34, -172218.05, -154932.03, -157109.00, -156857.78, 0.00, 0.00, 0.00
70, -8479.45, -8622.23, -9085.58, -8728.45, -172196.00, -154910.48, -157086.11, -156834.81, 0.00, 0.00, 0.00
71, -8517.36, -8657.25, -9119.89, -8761.77, -172230.95, -154945.27, -157123.08, -156872.30, 0.00, 0.00, 0.00
72, -8547.78, -8685.24, -9147.74, -8788.55, -172258.94, -154973.00, -157152.52, -156901.78, 0.00, 0.00, 0.00
73, -8513.69, -8653.75, -9116.87, -8758.55, -172227.36, -154941.86, -157119.39, -156868.14, 0.00, 0.00, 0.00
74, -8478.62, -8621.51, -9084.84, -8727.73, -172195.02, -154910.13, -157085.63, -156834.30, 0.00, 0.00, 0.00
75, -8508.55, -8649.25, -9112.02, -8754.13, -172222.67, -154937.73, -157114.92, -156864.02, 0.00, 0.00, 0.00
76, -8546.19, -8683.79, -9146.09, -8786.87, -172257.05, -154971.75, -157151.16, -156900.44, 0.00, 0.00, 0.00
77, -8520.57, -8660.00, -9122.84, -8764.16, -172233.31, -154948.28, -157126.33, -156875.02, 0.02, -0.03, 0.98
78, -8480.45, -8623.08, -9086.56, -8729.18, -172196.38, -154912.05, -157087.52, -156836.16, 0.00, 0.00, 0.00
79, -8499.83, -8641.05, -9104.09, -8746.35, -172214.19, -154930.13, -157106.67, -156855.73, 0.00, 0.00, 0.00
80, -8542.21, -8680.01, -9142.44, -8783.41, -172253.17, -154968.59, -157147.75, -156897.03, 0.00, 0.00, 0.00
81, -8529.00, -8667.72, -9130.62, -8771.74, -172240.88, -154956.30, -157134.80, -156883.58, 0.00, 0.00, 0.00
82, -8483.22, -8625.58, -9089.07, -8731.69, -172198.73, -154914.84, -157090.56, -156839.03, 0.00, 0.00, 0.00
83, -8491.63, -8633.45, -9096.49, -8739.15, -172206.42, -154922.86, -157098.94, -156847.80, 0.00, 0.00, 0.00
84, -8538.46, -8676.57, -9138.98, -8780.12, -172249.52, -154965.56, -157144.31, -156893.64, 0.00, 0.00, 0.00
85, -8536.42, -8674.58, -9137.28, -8778.27, -172247.55, -154963.56, -157142.34, -156891.38, 0.00, 0.00, 0.00
86, -8489.48, -8631.24, -9094.63, -8737.18, -172204.11, -154920.81, -157096.89, -156845.42, 0.00, 0.00, 0.00
87, -8485.15, -8627.39, -9090.61, -8733.56, -172200.06, -154917.23, -157093.02, -156841.81, 0.03, -0.03, 0.99
88, -8531.84, -8670.44, -9132.97, -8774.53, -172243.00, -154959.81, -157138.33, -156887.50, 0.00, 0.00, 0.00
89, -8541.43, -8679.23, -9141.84, -8782.78, -172251.80, -154968.44, -157147.53, -156896.59, 0.00, 0.00, 0.00
90, -8493.89, -8635.10, -9098.50, -8740.78, -172207.72, -154924.94, -157101.44, -156850.02, 0.00, 0.00, 0.00
91, -8479.27, -8621.65, -9085.04, -8728.11, -172194.13, -154911.94, -157087.41, -156836.11, 0.00, 0.00, 0.00
92, -8523.88, -8663.02, -9125.59, -8767.43, -172235.41, -154953.00, -157130.88, -156880.05, 0.00, 0.00, 0.00
93, -8545.09, -8682.42, -9144.88, -8785.78, -172254.73, -154972.00, -157151.22, -156900.36, 0.00, 0.00, 0.00
94, -8507.34, -8647.64, -9110.82, -8752.76, -172219.94, -154937.73, -157114.67, -156863.36, 0.00, 0.00, 0.00
95, -8479.98, -8622.48, -9085.92, -8728.89, -172194.81, -154913.20, -157088.41, -156837.17, 0.00, 0.00, 0.00
96, -8513.87, -8653.66, -9116.43, -8758.44, -172225.95, -154944.13, -157121.47, -156870.66, 0.00, 0.00, 0.00
97, -8544.96, -8682.24, -9144.68, -8785.51, -172254.41, -154972.27, -157151.56, -156900.72, 0.02, -0.03, 0.98
98, -8513.85, -8653.57, -9116.58, -8758.22, -172225.59, -154943.89, -157121.30, -156869.98, 0.00, 0.00, 0.00
99, -8478.96, -8621.45, -9084.89, -8727.82, -172193.55, -154912.45, -157087.63, -156836.27, 0.00, 0.00, 0.00
100, -8506.63, -8646.91, -9109.83, -8752.12, -172218.94, -154937.80, -157114.50, -156863.67, 0.00, 0.00, 0.00
101, -8544.45, -8681.62, -9144.08, -8784.97, -172253.38, -154971.88, -157151.13, -156900.39, 0.00, 0.00, 0.00
102, -8520.73, -8659.58, -9122.55, -8763.94, -172231.41, -154950.06, -157128.06, -156876.94, 0.00, 0.00, 0.00
103, -8478.08, -8620.40, -9083.91, -8726.72, -172192.17, -154911.69, -157086.94, -156835.55, 0.00, 0.00, 0.00
104, -8493.98, -8635.06, -9098.17, -8740.67, -172206.81, -154926.39, -157102.69, -156851.55, 0.00, 0.00, 0.00
105, -8539.28, -8676.79, -9139.34, -8780.37, -172248.48, -154967.52, -157146.58, -156895.69, 0.00, 0.00, 0.00
106, -8529.29, -8667.49, -9130.37, -8771.63, -172239.16, -154958.36, -157136.77, -156885.59, 0.00, 0.00, 0.00
107, -8481.53, -8623.44, -9086.90, -8729.63, -172194.95, -154914.92, -157090.42, -156839.02, 0.02, -0.04, 0.99
108, -8485.91, -8627.46, -9090.66, -8733.41, -172198.77, -154919.08, -157094.89, -156843.75, 0.00, 0.00, 0.00
109, -8532.71, -8670.40, -9133.03, -8774.22, -172241.75, -154961.59, -157140.16, -156889.50, 0.00, 0.00, 0.00
110, -8534.39, -8671.98, -9134.75, -8775.72, -172243.23, -154963.14, -157141.78, -156890.80, 0.00, 0.00, 0.00
111, -8486.22, -8627.48, -9091.04, -8733.41, -172198.77, -154919.28, -157095.23, -156843.73, 0.00, 0.00, 0.00
112, -8477.90, -8619.82, -9083.23, -8726.08, -172191.06, -154911.94, -157087.47, -156836.22, 0.00, 0.00, 0.00
113, -8523.17, -8661.68, -9124.18, -8765.79, -172232.66, -154953.27, -157131.34, -156880.58, 0.00, 0.00, 0.00
114, -8537.94, -8675.29, -9137.82, -8778.87, -172246.36, -154966.67, -157145.55, -156894.67, 0.00, 0.00, 0.00
115, -8494.94, -8635.66, -9099.01, -8741.25, -172206.78, -154927.72, -157103.97, -156852.53, 0.00, 0.00, 0.00
116, -8477.21, -8619.39, -9082.88, -8725.76, -172190.38, -154911.91, -157086.95, -156835.66, 0.00, 0.00, 0.00
117, -8515.88, -8654.98, -9117.70, -8759.51, -172225.66, -154947.03, -157124.42, -156873.64, 0.03, -0.04, 0.99
118, -8539.24, -8676.43, -9138.94, -8779.70, -172246.94, -154967.95, -157146.80, -156896.03, 0.00, 0.00, 0.00
119, -8499.72, -8639.96, -9102.95, -8744.81, -172210.39, -154931.83, -157108.55, -156857.25, 0.00, 0.00, 0.00
120, -8472.29, -8614.83, -9078.16, -8721.18, -172185.30, -154907.39, -157082.41, -156830.97, 0.00, 0.00, 0.00
121, -8506.94, -8646.86, -9109.59, -8751.67, -172217.19, -154939.25, -157116.23, -156865.16, 0.00, 0.00, 0.00
122, -8539.13, -8676.37, -9138.78, -8779.68, -172246.66, -154968.33, -157147.31, -156896.36, 0.00, 0.00, 0.00
123, -8509.62, -8649.01, -9112.11, -8753.73, -172219.38, -154941.34, -157118.55, -156867.17, 0.00, 0.00, 0.00
124, -8472.79, -8615.03, -9078.63, -8721.45, -172185.39, -154908.05, -157083.00, -156831.44, 0.00, 0.00, 0.00
125, -8496.95, -8637.34, -9100.24, -8742.64, -172207.36, -154930.16, -157106.55, -156855.34, 0.00, 0.00, 0.00
126, -8535.59, -8672.75, -9135.14, -8776.12, -172242.63, -154965.02, -157143.86, -156892.83, 0.00, 0.00, 0.00
127, -8516.71, -8655.40, -9118.30, -8759.69, -172225.34, -154947.83, -157125.58, -156874.22, 0.03, -0.04, 0.99
128, -8474.08, -8616.26, -9079.79, -8722.63, -172186.13, -154909.41, -157084.52, -156832.89, 0.00, 0.00, 0.00
129, -8488.97, -8630.08, -9093.18, -8735.75, -172199.83, -154923.28, -157099.14, -156847.84, 0.00, 0.00, 0.00
130, -8534.79, -8672.34, -9134.71, -8775.94, -172241.89, -154965.00, -157143.63, -156892.61, 0.00, 0.00, 0.00
131, -8526.16, -8664.23, -9126.98, -8768.23, -172233.73, -154956.77, -157135.03, -156883.73, 0.00, 0.00, 0.00
132, -8479.51, -8621.16, -9084.55, -8727.24, -172190.69, -154914.39, -157089.75, -156838.19, 0.00, 0.00, 0.00
133, -8481.84, -8623.30, -9086.48, -8729.34, -172192.83, -154916.81, -157092.28, -156840.98, 0.00, 0.00, 0.00
134, -8528.00, -8665.86, -9128.30, -8769.73, -172235.20, -154958.92, -157137.16, -156886.17, 0.00, 0.00, 0.00
135, -8529.69, -8667.27, -9129.82, -8770.91, -172236.44, -154960.13, -157138.70, -156887.41, 0.00, 0.00, 0.00
136, -8483.31, -8624.40, -9087.68, -8730.17, -172193.56, -154917.86, -157093.59, -156841.98, 0.00, 0.00, 0.00
137, -8475.04, -8616.87, -9080.24, -8723.15, -172185.97, -154910.84, -157085.81, -156834.45, 0.03, -0.04, 0.98
138, -8520.60, -8658.89, -9121.50, -8763.16, -172227.97, -154952.41, -157130.03, -156879.06, 0.00, 0.00, 0.00
139, -8538.34, -8675.36, -9137.84, -8778.80, -172244.30, -154968.50, -157147.20, -156896.03, 0.00, 0.00, 0.00
140, -8497.37, -8637.65, -9100.78, -8742.97, -172206.58, -154931.22, -157107.48, -156855.94, 0.00, 0.00, 0.00
141, -8473.57, -8615.57, -9078.85, -8721.87, -172184.33, -154909.56, -157084.50, -156833.02, 0.00, 0.00, 0.00
142, -8512.35, -8651.33, -9113.90, -8755.78, -172219.97, -154944.98, -157122.30, -156871.17, 0.00, 0.00, 0.00
143, -8537.29, -8673.97, -9136.57, -8777.40, -172242.58, -154967.41, -157146.30, -156895.19, 0.00, 0.00, 0.00
144, -8500.79, -8640.38, -9103.57, -8745.30, -172208.98, -154934.17, -157110.94, -156859.38, 0.00, 0.00, 0.00
145, -8471.02, -8613.07, -9076.53, -8719.46, -172181.58, -154907.42, -157082.28, -156830.58, 0.00, 0.00, 0.00
146, -8502.76, -8642.41, -9105.23, -8747.38, -172210.73, -154936.66, -157113.20, -156861.94, 0.00, 0.00, 0.00
147, -8540.24, -8677.08, -9139.45, -8780.44, -172245.28, -154970.86, -157149.52, -156898.42, 0.03, -0.04, 0.98
148, -8513.26, -8652.16, -9115.02, -8756.68, -172220.31, -154946.16, -157123.28, -156871.80, 0.00, 0.00, 0.00
149, -8474.48, -8616.44, -9079.79, -8722.81, -172184.52, -154911.08, -157085.95, -156834.27, 0.00, 0.00, 0.00
150, -8494.76, -8635.06, -9098.08, -8740.69, -172203.08, -154929.75, -157105.78, -156854.56, 0.00, 0.00, 0.00
151, -8535.04, -8671.94, -9134.46, -8775.65, -172239.94, -154966.05, -157144.69, -156893.61, 0.00, 0.00, 0.00
152, -8516.82, -8655.02, -9117.77, -8759.36, -172223.03, -154949.31, -157126.88, -156875.41, 0.00, 0.00, 0.00
153, -8470.62, -8612.26, -9075.75, -8718.66, -172180.31, -154907.34, -157082.17, -156830.45, 0.00, 0.00, 0.00
154, -8482.62, -8623.46, -9086.50, -8729.25, -172191.33, -154918.58, -157094.06, -156842.66, 0.00, 0.00, 0.00
155, -8532.00, -8669.26, -9131.72, -8772.95, -172237.00, -154963.88, -157142.17, -156891.00, 0.00, 0.00, 0.00
156, -8526.85, -8664.47, -9127.02, -8768.28, -172232.05, -154958.83, -157136.95, -156885.48, 0.03, -0.04, 0.98
157, -8477.19, -8618.45, -9081.65, -8724.47, -172185.98, -154913.47, -157088.72, -156837.02, 0.00, 0.00, 0.00
158, -8475.33, -8616.60, -9079.61, -8722.57, -172184.13, -154912.05, -157087.03, -156835.59, 0.00, 0.00, 0.00
159, -8523.30, -8660.88, -9123.36, -8764.88, -172228.48, -154956.08, -157133.70, -156882.67, 0.00, 0.00, 0.00
160, -8531.97, -8669.01, -9131.49, -8772.68, -172236.50, -154963.97, -157142.17, -156890.84, 0.00, 0.00, 0.00
161, -8485.93, -8626.59, -9089.83, -8732.31, -172194.06, -154922.08, -157097.58, -156845.92, 0.00, 0.00, 0.00
162, -8471.02, -8612.78, -9075.95, -8718.95, -172180.08, -154908.63, -157083.27, -156831.75, 0.00, 0.00, 0.00
163, -8515.41, -8653.77, -9116.20, -8757.95, -172220.91, -154949.17, -157126.44, -156875.28, 0.00, 0.00, 0.00
164, -8533.81, -8670.53, -9132.88, -8773.86, -172237.64, -154965.59, -157144.16, -156892.83, 0.00, 0.00, 0.00
165, -8490.69, -8630.59, -9093.63, -8735.71, -172197.55, -154926.06, -157102.22, -156850.39, 0.00, 0.00, 0.00
166, -8468.23, -8610.07, -9073.27, -8716.31, -172176.98, -154906.17, -157080.77, -156829.02, 0.03, -0.03, 0.98
167, -8507.21, -8646.06, -9108.69, -8750.64, -172212.98, -154942.00, -157118.72, -156867.48, 0.00, 0.00, 0.00
168, -8535.57, -8672.14, -9134.44, -8775.32, -172238.94, -154967.50, -157146.08, -156894.89, 0.00, 0.00, 0.00
169, -8502.13, -8641.34, -9104.36, -8746.17, -172208.16, -154937.22, -157113.69, -156862.03, 0.00, 0.00, 0.00
170, -8468.25, -8610.14, -9073.51, -8716.58, -172176.98, -154906.80, -157081.06, -156829.38, 0.00, 0.00, 0.00
171, -8497.37, -8636.92, -9099.60, -8742.04, -172203.72, -154933.39, -157109.52, -156858.22, 0.00, 0.00, 0.00
172, -8535.62, -8672.19, -9134.49, -8775.50, -172238.94, -154968.14, -157146.66, -156895.45, 0.00, 0.00, 0.00
173, -8510.40, -8648.83, -9111.69, -8753.21, -172215.52, -154945.03, -157122.05, -156870.42, 0.00, 0.00, 0.00
174, -8470.80, -8612.48, -9075.84, -8718.83, -172179.08, -154909.34, -157083.83, -156832.11, 0.00, 0.00, 0.00
175, -8490.11, -8630.25, -9093.07, -8735.80, -172196.84, -154927.16, -157102.78, -156851.38, 0.00, 0.00, 0.00
176, -8531.93, -8668.65, -9130.96, -8772.23, -172235.14, -154965.00, -157143.23, -156892.09, 0.03, -0.04, 0.97
177, -8516.73, -8654.57, -9117.25, -8758.69, -172220.98, -154951.05, -157128.38, -156876.94, 0.00, 0.00, 0.00
178, -8471.69, -8613.09, -9076.46, -8719.35, -172179.53, -154910.30, -157085.02, -156833.20, 0.00, 0.00, 0.00
179, -8480.86, -8621.65, -9084.73, -8727.46, -172187.97, -154919.00, -157094.11, -156842.67, 0.00, 0.00, 0.00
180, -8528.46, -8665.59, -9127.96, -8769.28, -172231.73, -154962.34, -157140.30, -156889.19, 0.00, 0.00, 0.00
181, -8526.63, -8663.76, -9126.31, -8767.54, -172229.84, -154960.45, -157138.33, -156886.94, 0.00, 0.00, 0.00
182, -8479.51, -8620.24, -9083.57, -8726.17, -172186.36, -154917.56, -157092.66, -156840.89, 0.00, 0.00, 0.00
183, -8472.56, -8613.65, -9076.80, -8719.77, -172179.59, -154911.31, -157086.13, -156834.47, 0.00, 0.00, 0.00
184, -8517.58, -8655.11, -9117.50, -8758.98, -172220.92, -154952.28, -157129.83, -156878.50, 0.00, 0.00, 0.00
185, -8528.42, -8665.17, -9127.69, -8768.68, -172231.06, -154962.09, -157140.36, -156888.94, 0.00, 0.00, 0.00
186, -8482.64, -8622.95, -9086.07, -8728.49, -172188.77, -154920.36, -157096.02, -156844.13, 0.02, -0.04, 0.98
187, -8466.86, -8608.30, -9071.39, -8714.65, -172174.00, -154906.33, -157080.88, -156829.09, 0.00, 0.00, 0.00
188, -8507.61, -8645.81, -9108.25, -8750.19, -172211.41, -154943.53, -157120.47, -156869.16, 0.00, 0.00, 0.00
189, -8530.23, -8666.71, -9128.99, -8770.04, -172232.30, -154963.97, -157142.30, -156890.95, 0.00, 0.00, 0.00
190, -8491.76, -8631.24, -9094.23, -8736.40, -172197.00, -154929.13, -157105.16, -156853.23, 0.00, 0.00, 0.00
191, -8466.19, -8607.79, -9071.08, -8714.27, -172173.38, -154906.25, -157080.64, -156828.64, 0.00, 0.00, 0.00
192, -8501.42, -8640.31, -9102.79, -8745.10, -172205.67, -154938.47, -157114.91, -156863.44, 0.00, 0.00, 0.00
193, -8530.27, -8666.62, -9128.72, -8769.89, -172231.92, -154964.22, -157142.61, -156891.27, 0.00, 0.00, 0.00
194, -8497.40, -8636.18, -9098.93, -8740.92, -172201.45, -154934.16, -157110.66, -156858.88, 0.00, 0.00, 0.00
195, -8463.47, -8605.02, -9068.24, -8711.46, -172170.31, -154903.66, -157078.00, -156826.20, 0.00, 0.00, 0.00
196, -8492.39, -8631.89, -9094.50, -8737.10, -172196.97, -154930.34, -157106.30, -156854.88, 0.03, -0.04, 0.98
197, -8531.46, -8667.87, -9130.04, -8771.09, -172232.75, -154965.84, -157144.05, -156892.91, 0.00, 0.00, 0.00
198, -8510.69, -8648.74, -9111.35, -8752.90, -172213.66, -154946.98, -157123.97, -156872.30, 0.00, 0.00, 0.00
199, -8468.05, -8609.49, -9072.62, -8715.75, -172174.44, -154908.47, -157082.89, -156830.88, 0.00, 0.00, 0.00
200, -8485.08, -8625.27, -9087.95, -8730.81, -172190.13, -154924.20, -157099.61, -156848.00, 0.00, 0.00, 0.00
201, -8531.82, -8668.50, -9130.51, -8771.88, -172233.27, -154966.89, -157144.92, -156893.64, 0.00, 0.00, 0.00
202, -8521.36, -8658.89, -9121.25, -8762.75, -172223.56, -154957.42, -157134.80, -156883.14, 0.00, 0.00, 0.00
203, -8472.47, -8613.56, -9076.80, -8719.62, -172178.30, -154912.77, -157087.50, -156835.50, 0.00, 0.00, 0.00
204, -8475.87, -8616.58, -9079.55, -8722.46, -172181.31, -154916.06, -157090.88, -156839.28, 0.00, 0.00, 0.00
205, -8522.81, -8659.92, -9122.06, -8763.49, -172224.36, -154958.77, -157136.42, -156885.13, 0.00, 0.00, 0.00
206, -8527.12, -8664.03, -9126.24, -8767.56, -172228.48, -154962.69, -157140.56, -156888.98, 0.03, -0.04, 0.99
207, -8481.46, -8621.98, -9084.91, -8727.71, -172186.36, -154921.34, -157096.41, -156844.36, 0.00, 0.00, 0.00
208, -8475.36, -8616.55, -9079.37, -8722.57, -172180.80, -154916.31, -157090.78, -156838.97, 0.00, 0.00, 0.00
209, -8520.44, -8658.10, -9120.14, -8761.97, -172222.23, -154957.48, -157134.56, -156883.22, 0.00, 0.00, 0.00
210, -8531.93, -8668.50, -9130.46, -8771.76, -172232.67, -154967.56, -157145.55, -156893.97, 0.00, 0.00, 0.00
211, -8485.39, -8625.29, -9088.04, -8730.61, -172189.45, -154924.88, -157100.33, -156848.31, 0.00, 0.00, 0.00
212, -8467.04, -8608.30, -9071.25, -8714.54, -172172.28, -154908.45, -157082.63, -156830.81, 0.00, 0.00, 0.00
213, -8509.55, -8647.71, -9109.88, -8751.98, -172211.56, -154947.52, -157124.16, -156872.72, 0.00, 0.00, 0.00
214, -8534.03, -8670.29, -9132.25, -8773.42, -172234.11, -154969.67, -157147.84, -156896.33, 0.00, 0.00, 0.00
215, -8495.96, -8635.19, -9097.81, -8740.05, -172198.92, -154934.94, -157110.83, -156858.88, 0.00, 0.00, 0.00
216, -8466.10, -8607.54, -9070.47, -8713.92, -172171.25, -154907.89, -157082.11, -156830.05, 0.02, -0.05, 0.98
217, -8498.63, -8637.41, -9099.71, -8742.28, -172201.03, -154937.70, -157113.83, -156862.17, 0.00, 0.00, 0.00
218, -8531.42, -8667.58, -9129.50, -8770.80, -172231.16, -154967.41, -157145.55, -156894.02, 0.00, 0.00, 0.00
219, -8501.69, -8640.04, -9102.61, -8744.61, -172203.59, -154940.09, -157116.53, -156864.63, 0.00, 0.00, 0.00
220, -8464.45, -8605.85, -9068.86, -8712.02, -172169.31, -154906.48, -157080.61, -156828.55, 0.00, 0.00, 0.00
221, -8486.13, -8625.56, -9088.04, -8730.59, -172188.89, -154926.16, -157101.69, -156850.03, 0.00, 0.00, 0.00
222, -8526.21, -8662.40, -9124.36, -8765.50, -172225.64, -154962.47, -157140.45, -156889.17, 0.00, 0.00, 0.00
223, -8507.83, -8645.50, -9107.87, -8749.61, -172208.70, -154945.78, -157122.72, -156870.86, 0.00, 0.00, 0.00
224, -8462.50, -8603.68, -9066.60, -8709.78, -172166.81, -154904.63, -157079.03, -156826.73, 0.00, 0.00, 0.00
225, -8477.93, -8618.09, -9080.66, -8723.59, -172181.19, -154919.13, -157094.30, -156842.39, 0.00, 0.00, 0.00
226, -8526.21, -8662.93, -9124.85, -8766.29, -172225.91, -154963.50, -157141.28, -156889.66, 0.02, -0.04, 0.98
227, -8518.70, -8655.96, -9118.15, -8759.69, -172218.91, -154956.41, -157133.89, -156881.97, 0.00, 0.00, 0.00
228, -8470.33, -8611.19, -9074.05, -8717.09, -172174.09, -154912.41, -157087.05, -156834.83, 0.00, 0.00, 0.00
229, -8474.06, -8614.79, -9077.45, -8720.44, -172177.53, -154916.14, -157090.84, -156838.98, 0.00, 0.00, 0.00
230, -8521.80, -8658.78, -9120.76, -8762.24, -172221.55, -154959.70, -157137.14, -156885.75, 0.00, 0.00, 0.00
231, -8525.92, -8662.60, -9124.61, -8765.77, -172225.19, -154963.39, -157141.03, -156889.39, 0.00, 0.00, 0.00
232, -8477.93, -8618.21, -9081.11, -8723.64, -172180.94, -154919.75, -157094.63, -156842.39, 0.00, 0.00, 0.00
233, -8467.53, -8608.68, -9071.52, -8714.59, -172171.39, -154910.66, -157084.80, -156832.81, 0.00, 0.00, 0.00
234, -8512.08, -8649.61, -9111.60, -8753.43, -172212.19, -154951.09, -157127.91, -156876.41, 0.00, 0.00, 0.00
235, -8527.95, -8664.12, -9126.11, -8767.27, -172226.64, -154965.31, -157143.08, -156891.53, 0.03, -0.04, 0.99
236, -8484.36, -8623.88, -9086.56, -8729.05, -172186.41, -154925.70, -157100.97, -156848.83, 0.00, 0.00, 0.00
237, -8464.25, -8605.49, -9068.28, -8711.55, -172167.84, -154907.84, -157081.75, -156829.72, 0.00, 0.00, 0.00
238, -8505.89, -8644.04, -9106.15, -8748.25, -172206.28, -154946.02, -157122.23, -156870.73, 0.00, 0.00, 0.00
239, -8533.00, -8669.12, -9130.89, -8772.08, -172231.36, -154970.47, -157148.45, -156896.97, 0.00, 0.00, 0.00
240, -8495.94, -8634.84, -9097.29, -8739.44, -172197.09, -154936.67, -157112.50, -156860.56, 0.00, 0.00, 0.00
241, -8461.83, -8603.30, -9066.11, -8709.36, -172165.42, -154905.86, -157079.69, -156827.70, 0.00, 0.00, 0.00
242, -8492.25, -8631.24, -9093.43, -8735.87, -172193.23, -154933.61, -157109.31, -156857.70, 0.00, 0.00, 0.00
243, -8528.98, -8664.94, -9126.71, -8767.92, -172226.88, -154966.88, -157144.73, -156893.22, 0.00, 0.00, 0.00
244, -8503.52, -8641.68, -9104.07, -8745.79, -172203.59, -154943.94, -157120.22, -156868.27, 0.00, 0.00, 0.00
245, -8463.62, -8604.88, -9067.86, -8710.90, -172166.97, -154908.02, -157081.84, -156829.73, 0.02, -0.04, 0.98
246, -8484.63, -8624.17, -9086.65, -8729.14, -172186.08, -154927.17, -157102.22, -156850.59, 0.00, 0.00, 0.00
247, -8526.36, -8662.53, -9124.34, -8765.39, -172224.14, -154964.86, -157142.53, -156891.06, 0.00, 0.00, 0.00
248, -8508.24, -8645.79, -9108.00, -8749.41, -172207.44, -154948.25, -157125.03, -156873.14, 0.00, 0.00, 0.00
249, -8461.50, -8602.56, -9065.46, -8708.37, -172164.39, -154905.94, -157079.98, -156827.77, 0.00, 0.00, 0.00
250, -8473.99, -8614.25, -9076.73, -8719.50, -172175.84, -154917.66, -157092.39, -156840.38, 0.00, 0.00, 0.00
251, -8523.86, -8660.38, -9122.04, -8763.34, -172221.70, -154963.08, -157140.56, -156888.91, 0.00, 0.00, 0.00
252, -8516.42, -8653.14, -9115.20, -8756.41, -172214.53, -154955.91, -157133.14, -156881.13, 0.00, 0.00, 0.00
253, -8467.73, -8608.24, -9071.21, -8713.87, -172169.94, -154911.91, -157086.31, -156833.94, 0.00, 0.00, 0.00
254, -8468.05, -8608.71, -9071.59, -8714.43, -172170.30, -154912.66, -157087.00, -156834.91, 0.00, 0.00, 0.00
255, -8513.98, -8650.82, -9112.76, -8754.15, -172212.00, -154953.95, -157131.06, -156879.41, 0.03, -0.04, 0.98
0, -8523.32, -8659.54, -9121.46, -8762.58, -172220.72, -154962.52, -157140.06, -156888.16, 0.00, 0.00, 0.00
1, -8477.93, -8617.87, -9080.69, -8723.19, -172179.34, -154921.81, -157096.77, -156844.33, 0.00, 0.00, 0.00
2, -8464.74, -8605.85, -9068.57, -8711.73, -172167.23, -154910.25, -157084.20, -156832.06, 0.00, 0.00, 0.00
3, -8510.25, -8647.69, -9109.56, -8751.36, -172208.70, -154951.41, -157127.97, -156876.34, 0.00, 0.00, 0.00
4, -8530.25, -8666.20, -9127.98, -8768.86, -172226.94, -154969.44, -157147.27, -156895.41, 0.00, 0.00, 0.00
5, -8488.07, -8627.26, -9089.83, -8731.98, -172188.31, -154931.33, -157106.61, -156854.36, 0.00, 0.00, 0.00
6, -8462.79, -8604.13, -9066.92, -8709.98, -172165.22, -154908.78, -157082.58, -156830.31, 0.00, 0.00, 0.00
7, -8499.83, -8638.35, -9100.24, -8742.15, -172198.97, -154942.36, -157118.36, -156866.50, 0.00, 0.00, 0.00
8, -8529.04, -8665.06, -9126.53, -8767.40, -172225.53, -154968.53, -157146.38, -156894.41, 0.00, 0.00, 0.00
9, -8493.42, -8632.11, -9094.30, -8736.20, -172192.63, -154936.14, -157112.03, -156859.64, 0.03, -0.04, 0.98
10, -8458.32, -8600.03, -9062.74, -8705.83, -172160.66, -154904.89, -157078.69, -156826.34, 0.00, 0.00, 0.00
11, -8489.50, -8628.69, -9090.77, -8733.05, -172189.11, -154933.30, -157108.70, -156856.80, 0.00, 0.00, 0.00
12, -8529.00, -8664.97, -9126.35, -8767.27, -172225.03, -154968.73, -157146.44, -156894.72, 0.00, 0.00, 0.00
13, -8503.16, -8641.14, -9103.28, -8744.76, -172201.45, -154945.39, -157121.67, -156869.44, 0.00, 0.00, 0.00
14, -8458.12, -8599.59, -9062.38, -8705.20, -172160.13, -154904.84, -157078.58, -156826.14, 0.00, 0.00, 0.00
15, -8478.33, -8618.16, -9080.37, -8722.81, -172178.41, -154923.31, -157098.02, -156845.97, 0.00, 0.00, 0.00
16, -8523.10, -8659.22, -9120.61, -8761.71, -172219.09, -154963.45, -157140.89, -156889.06, 0.00, 0.00, 0.00
17, -8509.46, -8646.77, -9108.69, -8750.01, -172206.73, -154951.16, -157127.91, -156875.67, 0.00, 0.00, 0.00
18, -8463.78, -8605.06, -9067.75, -8710.65, -172165.31, -154910.38, -157084.45, -156831.92, 0.00, 0.00, 0.00
19, -8471.24, -8611.88, -9074.12, -8717.00, -172171.84, -154917.30, -157091.66, -156839.48, 0.02, -0.04, 0.98
20, -8516.82, -8653.46, -9114.71, -8755.94, -172212.81, -154957.86, -157134.97, -156883.14, 0.00, 0.00, 0.00
21, -8517.11, -8653.83, -9115.49, -8756.54, -172213.28, -154958.31, -157135.31, -156883.14, 0.00, 0.00, 0.00
22, -8470.13, -8610.88, -9073.56, -8716.13, -172170.81, -154916.56, -157090.77, -156838.25, 0.00, 0.00, 0.00
23, -8464.43, -8605.58, -9068.17, -8711.03, -172165.33, -154911.59, -157085.33, -156833.22, 0.00, 0.00, 0.00
24, -8512.48, -8649.59, -9111.11, -8752.47, -172208.77, -154954.56, -157130.98, -156879.38, 0.00, 0.00, 0.00
25, -8523.10, -8659.22, -9120.81, -8761.66, -172218.36, -154963.95, -157141.19, -156889.19, 0.00, 0.00, 0.00
26, -8474.80, -8614.74, -9077.40, -8719.62, -172174.44, -154920.63, -157095.30, -156842.81, 0.00, 0.00, 0.00
27, -8458.24, -8599.45, -9062.31, -8705.29, -172159.34, -154906.13, -157079.69, -156827.39, 0.00, 0.00, 0.00
28, -8501.24, -8638.75, -9100.60, -8742.24, -172197.91, -154944.39, -157120.44, -156868.56, 0.00, 0.00, 0.00
29, -8526.32, -8661.86, -9123.40, -8764.23, -172220.81, -154966.88, -157144.31, -156892.34, 0.00, -0.04, 0.98
30, -8485.71, -8624.67, -9087.24, -8729.21, -172184.13, -154930.75, -157105.95, -156853.52, 0.00, 0.00, 0.00
31, -8455.37, -8596.70, -9059.77, -8702.58, -172156.42, -154903.64, -157077.22, -156824.77, 0.00, 0.00, 0.00
32, -8493.24, -8631.39, -9093.58, -8735.31, -172190.64, -154937.66, -157113.11, -156861.16, 0.00, 0.00, 0.00
33, -8526.50, -8661.79, -9123.49, -8764.03, -172220.61, -154967.17, -157144.53, -156892.59, 0.00, 0.00, 0.00
34, -8492.59, -8630.66, -9093.20, -8734.59, -172189.70, -154936.77, -157112.44, -156859.95, 0.00, 0.00, 0.00
35, -8451.69, -8592.90, -9056.14, -8698.87, -172152.39, -154900.13, -157073.77, -156821.27, 0.00, 0.00, 0.00
36, -8479.87, -8618.63, -9080.98, -8723.01, -172177.41, -154925.17, -157100.27, -156848.22, 0.00, 0.00, 0.00
37, -8522.70, -8657.81, -9119.35, -8759.94, -172215.92, -154963.31, -157140.63, -156888.66, 0.00, 0.00, 0.00
38, -8499.85, -8637.07, -9099.28, -8740.45, -172195.39, -154943.05, -157119.13, -156866.81, 0.00, 0.00, 0.00
39, -8455.60, -8596.75, -9059.81, -8702.50, -172155.50, -154903.94, -157077.50, -156825.02, 0.02, -0.04, 0.98
40, -8471.47, -8611.01, -9073.49, -8715.88, -172169.31, -154917.95, -157092.45, -156840.28, 0.00, 0.00, 0.00
41, -8519.30, -8654.80, -9116.18, -8756.99, -172212.23, -154960.33, -157137.39, -156885.50, 0.00, 0.00, 0.00
42, -8509.29, -8645.79, -9107.69, -8748.65, -172203.25, -154951.55, -157128.09, -156875.78, 0.00, 0.00, 0.00
43, -8460.56, -8601.33, -9064.37, -8706.92, -172159.48, -154908.48, -157082.44, -156829.80, 0.00, 0.00, 0.00
44, -8465.66, -8605.89, -9068.68, -8711.10, -172163.77, -154912.98, -157087.09, -156834.83, 0.00, 0.00, 0.00
45, -8514.07, -8649.97, -9111.53, -8752.36, -172206.81, -154955.63, -157132.31, -156880.39, 0.00, 0.00, 0.00
46, -8514.43, -8650.21, -9111.96, -8752.63, -172207.02, -154955.75, -157132.67, -156880.41, 0.00, 0.00, 0.00
47, -8464.29, -8604.44, -9067.41, -8709.60, -172162.05, -154911.48, -157085.75, -156833.13, 0.00, 0.00, 0.00
48, -8458.26, -8598.96, -9061.87, -8704.57, -172156.44, -154906.38, -157080.14, -156827.67, 0.00, 0.00, 0.00
49, -8505.49, -8641.99, -9103.53, -8744.76, -172198.28, -154947.83, -157124.06, -156872.09, 0.01, -0.04, 0.99
50, -8518.45, -8653.81, -9115.22, -8755.74, -172209.72, -154958.98, -157136.09, -156884.00, 0.00, 0.00, 0.00
51, -8467.91, -8607.39, -9070.09, -8712.06, -172164.22, -154914.17, -157088.88, -156836.31, 0.00, 0.00, 0.00
52, -8448.42, -8589.69, -9052.59, -8695.41, -172146.61, -154897.31, -157070.84, -156818.31, 0.00, 0.00, 0.00
53, -8496.23, -8633.41, -9095.08, -8736.56, -172189.11, -154939.67, -157115.41, -156863.28, 0.00, 0.00, 0.00
54, -8522.90, -8657.77, -9118.93, -8759.38, -172212.83, -154962.89, -157140.17, -156887.94, 0.00, 0.00, 0.00
55, -8481.03, -8619.66, -9081.98, -8723.82, -172175.59, -154926.22, -157101.44, -156848.69, 0.00, 0.00, 0.00
56, -8448.20, -8589.71, -9052.66, -8695.70, -172146.20, -154897.50, -157070.86, -156818.20, 0.00, 0.00, 0.00
57, -8484.10, -8622.16, -9083.97, -8725.88, -172177.42, -154928.58, -157103.75, -156851.58, 0.00, 0.00, 0.00
58, -8520.86, -8655.51, -9116.45, -8757.12, -172209.77, -154960.55, -157137.61, -156885.55, 0.05, -0.05, 0.97
59, -8489.28, -8627.13, -9089.05, -8730.73, -172182.08, -154933.22, -157108.73, -156856.30, 0.00, 0.00, 0.00
60, -8448.49, -8590.13, -9052.99, -8696.15, -172145.91, -154897.78, -157071.16, -156818.58, 0.00, 0.00, 0.00
61, -8475.87, -8614.90, -9076.86, -8719.37, -172169.83, -154921.66, -157096.30, -156844.13, 0.00, 0.00, 0.00
62, -8522.61, -8657.52, -9118.26, -8759.20, -172211.11, -154962.50, -157139.42, -156887.42, 0.00, 0.00, 0.00
63, -8502.85, -8639.98, -9101.41, -8742.82, -172194.06, -154945.59, -157121.61, -156869.25, 0.00, 0.00, 0.00
64, -8455.37, -8597.06, -9059.70, -8702.85, -172152.13, -154904.52, -157078.02, -156825.47, 0.00, 0.00, 0.00
65, -8470.06, -8610.27, -9072.26, -8715.08, -172164.47, -154917.19, -157091.31, -156839.03, 0.00, 0.00, 0.00
66, -8517.94, -8653.41, -9114.01, -8755.04, -172206.08, -154958.30, -157134.92, -156883.02, 0.00, 0.00, 0.00
67, -8509.98, -8646.37, -9107.33, -8748.65, -172199.23, -154951.47, -157127.80, -156875.58, 0.00, 0.00, 0.00
68, -8458.55, -8600.10, -9062.36, -8705.56, -172154.05, -154907.13, -157080.86, -156828.34, 0.04, -0.04, 0.98
69, -8459.04, -8600.24, -9062.13, -8705.51, -172153.83, -154907.28, -157080.88, -156828.64, 0.00, 0.00, 0.00
70, -8508.93, -8645.12, -9105.65, -8747.24, -172197.31, -154950.22, -157126.36, -156874.55, 0.00, 0.00, 0.00
71, -8513.94, -8649.70, -9110.39, -8751.65, -172202.02, -154954.83, -157131.23, -156879.16, 0.00, 0.00, 0.00
72, -8464.18, -8604.86, -9066.96, -8709.96, -172158.47, -154912.02, -157085.91, -156833.45, 0.00, 0.00, 0.00
73, -8454.90, -8596.61, -9058.69, -8702.23, -172150.06, -154904.20, -157077.42, -156825.22, 0.00, 0.00, 0.00
74, -8504.88, -8641.94, -9102.41, -8744.34, -172193.72, -154947.42, -157123.13, -156871.27, 0.00, 0.00, 0.00
75, -8523.05, -8658.44, -9118.68, -8759.76, -172209.77, -154963.20, -157139.95, -156887.81, 0.00, 0.00, 0.00
76, -8475.02, -8614.83, -9076.62, -8719.28, -172167.66, -154921.67, -157096.06, -156843.59, 0.00, 0.00, 0.00
77, -8451.89, -8593.89, -9056.10, -8699.66, -172147.23, -154901.92, -157074.91, -156822.53, 0.00, 0.00, 0.00
78, -8491.63, -8629.23, -9090.14, -8732.18, -172181.16, -154935.52, -157110.78, -156858.70, 0.09, -0.03, 0.96
79, -8520.35, -8654.98, -9115.42, -8756.21, -172206.33, -154960.30, -157137.14, -156884.92, 0.00, 0.00, 0.00
80, -8484.34, -8622.88, -9084.64, -8726.72, -172175.42, -154930.03, -157104.84, -156852.31, 0.00, 0.00, 0.00
81, -8448.62, -8590.47, -9053.06, -8696.50, -172144.06, -154899.14, -157072.19, -156819.75, 0.00, 0.00, 0.00
82, -8483.38, -8621.65, -9082.99, -8725.41, -172173.84, -154928.81, -157103.55, -156851.50, 0.00, 0.00, 0.00
83, -8524.58, -8659.09, -9119.42, -8760.34, -172209.91, -154964.58, -157141.25, -156889.17, 0.00, 0.00, 0.00
84, -8494.76, -8632.20, -9093.74, -8735.58, -172184.09, -154939.06, -157114.42, -156861.94, 0.00, 0.00, 0.00
85, -8449.99, -8591.63, -9054.31, -8697.85, -172144.69, -154900.53, -157073.64, -156821.02, 0.00, 0.00, 0.00
86, -8474.06, -8613.24, -9074.92, -8717.67, -172165.16, -154921.08, -157095.19, -156842.98, 0.00, 0.00, 0.00
87, -8520.37, -8654.98, -9115.35, -8756.25, -172205.45, -154960.77, -157137.19, -156885.22, 0.00, 0.00, 0.00
88, -8501.53, -8638.08, -9099.22, -8740.69, -172189.20, -154944.72, -157120.33, -156867.98, 0.00, -0.08, 0.92
89, -8451.06, -8592.50, -9054.94, -8698.32, -172145.06, -154901.31, -157074.58, -156821.89, 0.00, 0.00, 0.00
90, -8461.61, -8601.78, -9063.54, -8706.65, -172153.63, -154910.06, -157083.86, -156831.39, 0.00, 0.00, 0.00
91, -8511.45, -8646.64, -9106.91, -8748.23, -172196.66, -154952.61, -157128.89, -156876.81, 0.00, 0.00, 0.00
92, -8506.00, -8641.79, -9102.59, -8743.87, -172192.11, -154948.13, -157124.23, -156871.84, 0.00, 0.00, 0.00
93, -8457.34, -8598.20, -9060.46, -8703.68, -172149.95, -154906.86, -157080.33, -156827.67, 0.00, 0.00, 0.00
94, -8455.62, -8596.39, -9058.42, -8701.74, -172147.81, -154905.20, -157078.38, -156826.03, 0.00, 0.00, 0.00
95, -8507.45, -8643.15, -9103.73, -8745.16, -172193.00, -154949.81, -157125.66, -156873.48, 0.00, 0.00, 0.00
96, -8516.51, -8651.60, -9112.14, -8753.26, -172201.28, -154957.94, -157134.25, -156881.88, 0.00, 0.00, 0.00
97, -8465.43, -8605.40, -9067.37, -8710.43, -172156.58, -154913.94, -157087.86, -156835.14, 0.00, 0.00, 0.00
98, -8450.68, -8591.81, -9053.98, -8697.64, -172143.05, -154901.08, -157074.05, -156821.53, 0.01, -0.06, 0.95
99, -8496.34, -8632.76, -9093.34, -8735.42, -172182.36, -154939.92, -157115.25, -156863.11, 0.00, 0.00, 0.00
100, -8514.34, -8648.81, -9109.01, -8750.19, -172197.97, -154955.16, -157131.69, -156879.38, 0.00, 0.00, 0.00
101, -8472.09, -8611.03, -9072.75, -8715.41, -172161.53, -154919.41, -157093.67, -156840.98, 0.00, 0.00, 0.00
102, -8445.99, -8587.50, -9049.71, -8693.51, -172138.41, -154897.00, -157069.75, -156817.20, 0.00, 0.00, 0.00
103, -8487.49, -8624.96, -9085.89, -8728.18, -172174.45, -154932.77, -157107.59, -156855.34, 0.00, 0.00, 0.00
104, -8521.58, -8656.05, -9116.14, -8757.21, -172204.67, -154962.50, -157139.06, -156886.75, 0.00, 0.00, 0.00
105, -8482.89, -8621.00, -9082.43, -8724.69, -172170.83, -154929.14, -157103.83, -156851.14, 0.00, 0.00, 0.00
106, -8446.88, -8588.48, -9050.85, -8694.45, -172139.19, -154898.28, -157071.00, -156818.30, 0.00, 0.00, 0.00
107, -8477.28, -8615.64, -9076.80, -8719.46, -172165.13, -154924.11, -157098.41, -156846.08, 0.00, 0.00, 0.00
108, -8516.26, -8650.50, -9110.73, -8751.76, -172198.97, -154957.38, -157133.89, -156881.61, 0.01, -0.02, 0.97
109, -8491.45, -8628.35, -9089.56, -8731.40, -172177.69, -154936.47, -157111.66, -156859.02, 0.00, 0.00, 0.00
110, -8447.60, -8588.84, -9051.20, -8694.65, -172139.19, -154898.83, -157071.67, -156818.81, 0.00, 0.00, 0.00
111, -8467.58, -8606.67, -9068.19, -8711.10, -172156.13, -154915.84, -157089.59, -156837.09, 0.00, 0.00, 0.00
112, -8515.84, -8650.26, -9110.50, -8751.76, -172198.33, -154957.47, -157133.78, -156881.53, 0.00, 0.00, 0.00
113, -8501.93, -8637.85, -9098.77, -8740.38, -172186.41, -154945.73, -157121.45, -156868.84, 0.00, 0.00, 0.00
114, -8448.80, -8589.53, -9051.83, -8695.21, -172139.31, -154899.48, -157072.59, -156819.70, 0.00, 0.00, 0.00
115, -8456.83, -8596.64, -9058.47, -8701.74, -172145.80, -154906.25, -157079.72, -156827.14, 0.00, 0.00, 0.00
116, -8507.61, -8642.41, -9102.79, -8744.23, -172190.14, -154950.05, -157126.20, -156873.80, 0.00, 0.00, 0.00
117, -8505.20, -8640.38, -9101.09, -8742.37, -172188.27, -154948.13, -157124.20, -156871.48, 0.00, 0.00, 0.00
118, -8454.35, -8594.51, -9056.70, -8699.81, -172143.73, -154904.41, -157077.84, -156824.81, -0.06, 0.01, 0.96
119, -8451.02, -8591.38, -9053.48, -8696.86, -172140.52, -154901.56, -157074.69, -156821.88, 0.00, 0.00, 0.00
120, -8500.19, -8635.66, -9096.29, -8737.83, -172183.17, -154943.72, -157119.33, -156866.91, 0.00, 0.00, 0.00
121, -8511.70, -8646.21, -9106.70, -8747.82, -172193.44, -154953.83, -157130.02, -156877.50, 0.00, 0.00, 0.00
122, -8464.36, -8603.66, -9065.69, -8708.49, -172152.33, -154913.39, -157087.25, -156834.34, 0.00, 0.00, 0.00
123, -8445.63, -8586.38, -9048.63, -8692.30, -172135.38, -154896.88, -157069.91, -156817.08, 0.00, 0.00, 0.00
124, -8493.42, -8629.61, -9090.41, -8732.40, -172176.86, -154938.08, -157113.33, -156860.89, 0.00, 0.00, 0.00
125, -8517.94, -8651.85, -9112.18, -8753.10, -172198.44, -154959.45, -157135.91, -156883.45, 0.00, 0.00, 0.00
126, -8473.10, -8611.32, -9073.04, -8715.53, -172159.20, -154920.78, -157095.13, -156842.25, 0.00, 0.00, 0.00
127, -8442.03, -8583.16, -9045.42, -8689.17, -172131.61, -154893.88, -157066.63, -156813.80, 0.00, 0.00, 0.00
128, -8480.70, -8617.85, -9078.76, -8721.07, -172164.78, -154926.91, -157101.44, -156849.05, -0.07, -0.05, 0.94
129, -8516.57, -8650.33, -9110.37, -8751.29, -172196.05, -154957.73, -157134.08, -156881.75, 0.00, 0.00, 0.00
130, -8481.08, -8618.36, -9079.77, -8721.81, -172165.45, -154927.47, -157102.27, -156849.41, 0.00, 0.00, 0.00
131, -8439.57, -8580.75, -9043.20, -8686.85, -172128.88, -154891.75, -157064.45, -156811.58, 0.00, 0.00, 0.00
132, -8469.77, -8607.79, -9069.09, -8711.77, -172154.61, -154917.50, -157091.39, -156838.92, 0.00, 0.00, 0.00
133, -8515.54, -8649.16, -9109.18, -8750.15, -172194.48, -154956.80, -157132.89, -156880.66, 0.00, 0.00, 0.00
134, -8493.48, -8629.67, -9090.77, -8732.45, -172175.92, -154938.64, -157113.64, -156860.95, 0.00, 0.00, 0.00
135, -8444.76, -8585.77, -9048.25, -8691.72, -172133.48, -154896.91, -157069.77, -156816.84, 0.00, 0.00, 0.00
136, -8461.90, -8600.88, -9062.36, -8705.36, -172147.63, -154911.06, -157084.64, -156832.17, 0.00, 0.00, 0.00
137, -8509.96, -8643.78, -9103.71, -8744.90, -172188.64, -154951.63, -157127.58, -156875.25, -0.02, -0.04, 0.96
138, -8498.22, -8633.52, -9094.12, -8735.64, -172178.97, -154942.02, -157117.48, -156864.81, 0.00, 0.00, 0.00
139, -8446.52, -8587.23, -9049.46, -8692.97, -172134.36, -154898.34, -157071.20, -156818.31, 0.00, 0.00, 0.00
140, -8452.00, -8592.01, -9053.73, -8697.04, -172138.36, -154902.61, -157075.69, -156823.00, 0.00, 0.00, 0.00
141, -8505.58, -8640.11, -9100.04, -8741.43, -172184.22, -154948.02, -157123.58, -156871.20, 0.00, 0.00, 0.00
142, -8506.34, -8640.96, -9101.16, -8742.37, -172185.25, -154948.97, -157124.73, -156872.09, 0.00, 0.00, 0.00
143, -8452.85, -8593.08, -9054.96, -8698.20, -172139.31, -154903.86, -157077.11, -156824.14, 0.00, 0.00, 0.00
144, -8446.19, -8587.14, -9048.97, -8692.59, -172133.27, -154898.20, -157070.94, -156818.17, 0.00, 0.00, 0.00
145, -8496.48, -8631.82, -9092.06, -8733.74, -172175.91, -154940.31, -157115.34, -156862.97, 0.00, 0.00, 0.00
146, -8510.67, -8644.58, -9104.65, -8745.70, -172188.25, -154952.48, -157128.38, -156875.84, 0.00, 0.00, 0.00
147, -8461.86, -8601.06, -9062.89, -8705.80, -172146.67, -154911.70, -157085.38, -156832.55, -0.06, 0.02, 1.02
148, -8440.40, -8581.73, -9043.78, -8687.59, -172127.56, -154893.31, -157065.69, -156813.06, 0.00, 0.00, 0.00
149, -8485.26, -8621.60, -9081.98, -8723.93, -172165.28, -154930.55, -157105.05, -156852.67, 0.00, 0.00, 0.00
150, -8512.84, -8646.50, -9106.06, -8747.11, -172189.27, -154953.98, -157129.94, -156877.56, 0.00, 0.00, 0.00
151, -8470.44, -8608.68, -9069.98, -8712.58, -172153.31, -154918.75, -157092.84, -156840.00, 0.00, 0.00, 0.00
152, -8436.80, -8578.42, -9040.50, -8684.64, -172124.00, -154890.23, -157062.69, -156809.75, 0.00, 0.00, 0.00
153, -8474.17, -8611.77, -9072.15, -8714.97, -172155.16, -154921.17, -157095.25, -156842.67, 0.00, 0.00, 0.00
154, -8511.43, -8645.23, -9104.51, -8745.83, -172187.08, -154952.61, -157128.42, -156876.00, 0.00, 0.00, 0.00
155, -8478.20, -8615.75, -9076.35, -8718.72, -172159.09, -154925.13, -157099.55, -156846.81, 0.00, 0.00, 0.00
156, -8435.26, -8577.01, -9039.02, -8683.00, -172121.91, -154888.83, -157061.14, -156808.25, 0.00, 0.00, 0.00
157, -8462.75, -8601.33, -9062.07, -8705.11, -172144.72, -154911.52, -157084.88, -156832.44, -0.05, 0.02, 0.89
158, -8509.08, -8642.95, -9102.23, -8743.40, -172184.36, -154950.53, -157126.23, -156873.86, 0.00, 0.00, 0.00
159, -8489.95, -8626.19, -9086.65, -8728.54, -172168.98, -154935.42, -157110.19, -156857.41, 0.00, 0.00, 0.00
160, -8442.97, -8584.32, -9046.44, -8690.18, -172129.06, -154896.48, -157068.97, -156815.94, 0.00, 0.00, 0.00
161, -8457.83, -8597.29, -9058.63, -8701.78, -172140.91, -154908.41, -157081.55, -156828.80, 0.00, 0.00, 0.00
162, -8507.61, -8641.70, -9101.32, -8742.55, -172183.22, -154950.05, -157125.56, -156873.05, 0.00, 0.00, 0.00
163, -8497.37, -8632.49, -9092.76, -8734.30, -172174.66, -154941.66, -157116.83, -156864.02, 0.00, 0.00, 0.00
164, -8446.95, -8587.58, -9049.64, -8692.97, -172131.72, -154899.73, -157072.31, -156819.36, 0.00, 0.00, 0.00
165, -8448.89, -8589.01, -9050.71, -8694.11, -172132.59, -154900.88, -157073.55, -156820.75, 0.00, 0.00, 0.00
166, -8500.23, -8634.68, -9094.63, -8735.98, -172176.08, -154943.72, -157118.86, -156866.33, 0.00, 0.00, 0.00
167, -8505.64, -8639.96, -9099.91, -8741.12, -172181.45, -154948.91, -157124.38, -156871.69, 0.03, -0.01, 0.97
168, -8454.35, -8594.13, -9055.90, -8699.10, -172137.64, -154906.09, -157079.09, -156826.14, 0.00, 0.00, 0.00
169, -8444.24, -8585.06, -9046.85, -8690.63, -172128.45, -154897.38, -157069.66, -156816.92, 0.00, 0.00, 0.00
170, -8494.71, -8630.25, -9090.14, -8732.13, -172171.33, -154939.73, -157114.42, -156861.91, 0.00, 0.00, 0.00
171, -8512.73, -8646.59, -9106.19, -8747.49, -172187.08, -154955.23, -157130.92, -156878.22, 0.00, 0.00, 0.00
172, -8464.07, -8603.14, -9064.55, -8707.48, -172145.34, -154914.30, -157087.77, -156834.73, 0.00, 0.00, 0.00
173, -8439.55, -8580.95, -9042.78, -8686.92, -172123.67, -154893.20, -157065.41, -156812.59, 0.00, 0.00, 0.00
174, -8484.16, -8620.82, -9080.91, -8723.53, -172161.53, -154930.83, -157104.91, -156852.44, 0.00, 0.00, 0.00
175, -8514.72, -8648.45, -9107.84, -8749.10, -172188.06, -154957.02, -157132.69, -156880.11, 0.00, 0.00, 0.00
176, -8473.86, -8611.70, -9072.62, -8715.21, -172152.97, -154922.44, -157096.38, -156843.34, 0.00, 0.00, 0.00
177, -8435.08, -8576.45, -9038.33, -8682.45, -172118.91, -154889.02, -157061.09, -156808.05, 0.04, -0.04, 0.97
178, -8469.32, -8607.10, -9067.45, -8710.38, -172147.86, -154917.81, -157091.55, -156838.83, 0.00, 0.00, 0.00
179, -8507.57, -8641.39, -9100.54, -8741.86, -172180.64, -154950.20, -157125.89, -156873.20, 0.00, 0.00, 0.00
180, -8480.56, -8617.40, -9077.92, -8720.24, -172157.98, -154927.92, -157102.20, -156849.27, 0.00, 0.00, 0.00
181, -8436.73, -8578.08, -9039.89, -8683.85, -172119.95, -154890.75, -157062.81, -156809.75, 0.00, 0.00, 0.00
182, -8458.55, -8597.29, -9057.96, -8701.22, -172137.97, -154908.78, -157081.89, -156829.06, 0.00, 0.00, 0.00
183, -8507.45, -8641.23, -9100.56, -8742.01, -172180.31, -154950.45, -157125.97, -156873.28, 0.00, 0.00, 0.00
184, -8490.76, -8626.43, -9086.68, -8728.71, -172166.36, -154936.78, -157111.53, -156858.55, 0.00, 0.00, 0.00
185, -8440.02, -8580.88, -9042.82, -8686.67, -172122.55, -154893.84, -157066.13, -156813.00, 0.00, 0.00, 0.00
186, -8452.80, -8592.23, -9053.44, -8696.91, -172133.06, -154904.53, -157077.23, -156824.33, 0.00, 0.00, 0.00
187, -8503.74, -8637.70, -9097.23, -8738.82, -172176.53, -154947.41, -157122.67, -156870.03, 0.03, -0.04, 0.97
188, -8496.84, -8631.51, -9091.66, -8733.21, -172170.70, -154941.75, -157116.84, -156863.95, 0.00, 0.00, 0.00
189, -8443.75, -8583.99, -9045.79, -8689.33, -172125.06, -154896.95, -157069.53, -156816.33, 0.00, 0.00, 0.00
190, -8444.24, -8584.46, -9045.91, -8689.60, -172125.22, -154897.31, -157069.86, -156816.84, 0.00, 0.00, 0.00
191, -8494.98, -8629.67, -9089.31, -8731.08, -172168.23, -154939.88, -157114.81, -156862.14, 0.00, 0.00, 0.00
192, -8502.98, -8637.03, -9096.71, -8738.10, -172175.45, -154947.09, -157122.45, -156869.55, 0.00, 0.00, 0.00
193, -8450.30, -8589.75, -9051.36, -8694.63, -172130.31, -154902.77, -157075.66, -156822.41, 0.00, 0.00, 0.00
194, -8435.41, -8576.19, -9037.99, -8682.00, -172117.02, -154890.03, -157062.08, -156809.03, 0.00, 0.00, 0.00
195, -8485.24, -8620.58, -9080.60, -8722.72, -172159.25, -154931.77, -157106.05, -156853.30, 0.00, 0.00, 0.00
196, -8507.36, -8640.56, -9100.16, -8741.28, -172178.81, -154950.77, -157126.30, -156873.39, 0.00, 0.00, 0.00
197, -8463.04, -8601.29, -9062.72, -8705.51, -172141.66, -154914.28, -157087.70, -156834.55, 0.02, -0.04, 0.98
198, -8436.11, -8577.12, -9039.16, -8683.18, -172118.16, -154891.50, -157063.56, -156810.42, 0.00, 0.00, 0.00
199, -8476.79, -8613.18, -9073.47, -8715.93, -172151.94, -154925.09, -157099.00, -156846.14, 0.00, 0.00, 0.00
200, -8511.68, -8644.51, -9103.96, -8745.05, -172182.08, -154954.84, -157130.33, -156877.45, 0.00, 0.00, 0.00
201, -8473.93, -8611.12, -9072.13, -8714.63, -172150.48, -154923.88, -157097.53, -156844.39, 0.00, 0.00, 0.00
202, -8435.32, -8576.70, -9038.64, -8682.74, -172117.09, -154891.27, -157063.05, -156809.91, 0.00, 0.00, 0.00
203, -8467.09, -8604.82, -9065.17, -8708.22, -172143.30, -154917.25, -157090.53, -156837.69, 0.00, 0.00, 0.00
204, -8509.89, -8643.08, -9102.10, -8743.47, -172179.89, -154953.33, -157128.63, -156875.80, 0.00, 0.00, 0.00
205, -8483.13, -8619.41, -9079.68, -8721.96, -172157.64, -154931.42, -157105.64, -156852.44, 0.00, 0.00, 0.00
206, -8436.04, -8577.37, -9039.02, -8683.25, -172117.36, -154891.92, -157063.89, -156810.69, 0.00, 0.00, 0.00
207, -8457.05, -8595.85, -9056.46, -8700.01, -172134.47, -154909.09, -157081.94, -156829.09, 0.02, -0.06, 1.02
208, -8504.91, -8638.41, -9097.47, -8739.08, -172174.94, -154948.86, -157124.06, -156871.31, 0.00, 0.00, 0.00
209, -8488.32, -8623.79, -9083.61, -8725.63, -172161.00, -154935.25, -157109.72, -156856.77, 0.00, 0.00, 0.00
210, -8438.52, -8579.45, -9040.97, -8684.93, -172118.89, -154894.09, -157066.13, -156812.92, 0.00, 0.00, 0.00
211, -8447.84, -8587.63, -9048.59, -8692.28, -172126.27, -154901.63, -157074.11, -156821.00, 0.00, 0.00, 0.00
212, -8500.14, -8634.34, -9093.38, -8735.22, -172170.31, -154945.22, -157119.92, -156867.16, 0.00, 0.00, 0.00
213, -8497.15, -8631.80, -9091.13, -8733.14, -172167.92, -154942.78, -157117.58, -156864.67, 0.00, 0.00, 0.00
214, -8442.34, -8582.73, -9043.94, -8687.88, -172121.09, -154896.83, -157069.19, -156815.92, 0.00, 0.00, 0.00
215, -8436.31, -8576.97, -9037.99, -8682.18, -172115.11, -154891.14, -157063.16, -156810.20, 0.00, 0.00, 0.00
216, -8487.65, -8622.74, -9081.85, -8724.09, -172158.45, -154933.91, -157108.27, -156855.69, 0.04, -0.05, 0.99
217, -8500.39, -8634.39, -9093.49, -8735.11, -172169.98, -154945.23, -157120.28, -156867.47, 0.00, 0.00, 0.00
218, -8451.57, -8591.09, -9051.94, -8695.50, -172128.88, -154905.03, -157077.73, -156824.58, 0.00, 0.00, 0.00
219, -8434.59, -8575.81, -9036.97, -8681.33, -172114.02, -154890.67, -157062.39, -156809.34, 0.00, 0.00, 0.00
220, -8483.40, -8619.53, -9078.88, -8721.38, -172155.39, -154931.61, -157105.41, -156852.67, 0.00, 0.00, 0.00
221, -8509.06, -8642.73, -9101.50, -8743.09, -172177.73, -154953.78, -157128.67, -156875.84, 0.00, 0.00, 0.00
222, -8465.83, -8604.33, -9064.77, -8707.99, -172141.19, -154917.91, -157090.95, -156837.78, 0.00, 0.00, 0.00
223, -8435.37, -8576.90, -9038.17, -8682.58, -172114.66, -154892.02, -157063.61, -156810.48, 0.00, 0.00, 0.00
224, -8473.79, -8610.96, -9070.52, -8713.69, -172146.63, -154923.75, -157096.97, -156844.22, 0.00, 0.00, 0.00
225, -8508.37, -8641.83, -9100.40, -8742.30, -172176.08, -154952.75, -157127.78, -156874.97, 0.00, 0.00, 0.00
226, -8473.23, -8610.58, -9070.61, -8713.72, -172146.56, -154923.69, -157097.23, -156844.06, 0.03, -0.07, 1.05
227, -8432.96, -8574.38, -9035.67, -8680.19, -172111.89, -154889.73, -157061.44, -156808.14, 0.00, 0.00, 0.00
228, -8461.77, -8599.70, -9059.74, -8703.23, -172135.72, -154913.36, -157086.25, -156833.38, 0.00, 0.00, 0.00
229, -8503.99, -8637.32, -9095.91, -8737.72, -172171.50, -154948.64, -157123.55, -156870.80, 0.00, 0.00, 0.00
230, -8479.94, -8615.95, -9075.70, -8718.43, -172151.47, -154928.97, -157102.92, -156849.81, 0.00, 0.00, 0.00
231, -8431.82, -8572.79, -9034.04, -8678.60, -172110.11, -154888.44, -157060.19, -156806.98, 0.00, 0.00, 0.00
232, -8448.42, -8587.25, -9047.54, -8691.52, -172123.33, -154901.78, -157074.22, -156821.33, 0.00, 0.00, 0.00
233, -8498.45, -8632.04, -9090.59, -8732.85, -172165.92, -154943.83, -157118.55, -156865.92, 0.00, 0.00, 0.00
234, -8487.90, -8623.03, -9082.32, -8724.87, -172157.47, -154935.67, -157109.98, -156856.83, 0.00, 0.00, 0.00
235, -8436.51, -8577.28, -9038.15, -8682.62, -172113.67, -154892.64, -157064.56, -156811.16, 0.00, 0.00, 0.00
236, -8444.94, -8584.79, -9045.19, -8689.55, -172120.52, -154899.78, -157071.72, -156818.72, 0.06, -0.09, 1.05
237, -8497.04, -8631.39, -9089.94, -8732.54, -172164.66, -154943.66, -157117.94, -156865.23, 0.00, 0.00, 0.00
238, -8496.86, -8631.26, -9090.01, -8732.51, -172164.69, -154943.66, -157118.08, -156865.14, 0.00, 0.00, 0.00
239, -8446.10, -8586.13, -9046.64, -8691.01, -172121.70, -154901.25, -157073.39, -156820.14, 0.00, 0.00, 0.00
240, -8440.42, -8580.97, -9041.64, -8686.40, -172116.63, -154896.63, -157068.31, -156815.14, 0.00, 0.00, 0.00
241, -8486.55, -8621.69, -9080.42, -8723.42, -172154.89, -154934.63, -157108.42, -156855.69, 0.00, 0.00, 0.00
242, -8499.12, -8632.94, -9091.26, -8733.74, -172165.64, -154945.17, -157119.64, -156866.97, 0.00, 0.00, 0.00
243, -8454.14, -8593.13, -9053.55, -8697.53, -172128.19, -154908.17, -157080.72, -156827.39, 0.00, 0.00, 0.00
244, -8433.29, -8574.04, -9035.16, -8679.85, -172109.91, -154890.30, -157062.00, -156808.53, 0.00, 0.00, 0.00
245, -8473.10, -8609.00, -9068.13, -8711.32, -172142.38, -154922.69, -157096.22, -156843.23, 0.00, 0.00, 0.00
246, -8498.87, -8632.18, -9090.34, -8732.76, -172164.33, -154944.41, -157119.13, -156866.39, 0.06, -0.07, 1.05
247, -8461.86, -8599.77, -9059.81, -8703.63, -172134.05, -154914.55, -157087.58, -156834.34, 0.00, 0.00, 0.00
248, -8432.02, -8573.19, -9034.46, -8679.27, -172108.84, -154889.73, -157061.66, -156808.03, 0.00, 0.00, 0.00
249, -8467.31, -8604.15, -9063.65, -8707.37, -172137.66, -154918.53, -157091.72, -156838.70, 0.00, 0.00, 0.00
250, -8501.31, -8634.28, -9092.29, -8734.88, -172165.83, -154946.63, -157121.00, -156868.50, 0.00, 0.00, 0.00
251, -8469.95, -8606.74, -9066.36, -8709.94, -172140.05, -154921.03, -157094.27, -156841.25, 0.00, 0.00, 0.00
252, -8430.59, -8571.78, -9033.10, -8677.97, -172107.08, -154888.52, -157060.27, -156806.73, 0.00, 0.00, 0.00
253, -8455.49, -8593.49, -9053.33, -8697.38, -172126.86, -154908.53, -157081.14, -156828.13, 0.00, 0.00, 0.00
254, -8495.29, -8628.53, -9086.34, -8728.92, -172159.19, -154940.86, -157115.02, -156862.55, 0.00, 0.00, 0.00
255, -8475.45, -8611.25, -9070.20, -8713.49, -172143.20, -154924.98, -157098.47, -156845.58, 0.00, 0.00, 0.00
0, -8433.16, -8574.04, -9035.29, -8680.08, -172108.84, -154891.02, -157062.81, -156809.19, 0.07, -0.04, 1.01
1, -8448.87, -8587.81, -9048.10, -8692.39, -172121.45, -154903.78, -157076.00, -156822.77, 0.00, 0.00, 0.00
2, -8491.85, -8625.25, -9083.06, -8725.94, -172155.67, -154937.91, -157111.88, -156859.31, 0.00, 0.00, 0.00
3, -8482.67, -8617.40, -9075.90, -8718.99, -172148.50, -154930.86, -157104.50, -156851.73, 0.00, 0.00, 0.00
4, -8438.45, -8578.84, -9040.03, -8684.59, -172113.17, -154895.81, -157067.92, -156814.31, 0.00, 0.00, 0.00
5, -8441.76, -8581.46, -9042.33, -8686.76, -172115.38, -154898.23, -157070.44, -156816.97, 0.00, 0.00, 0.00
6, -8484.74, -8618.72, -9076.86, -8719.84, -172149.13, -154932.11, -157105.80, -156853.23, 0.00, 0.00, 0.00
7, -8486.98, -8620.75, -9078.90, -8721.74, -172151.09, -154934.05, -157107.95, -156855.28, 0.00, 0.00, 0.00
8, -8444.44, -8583.92, -9044.75, -8689.17, -172117.66, -154900.89, -157073.28, -156819.77, 0.00, 0.00, 0.00
9, -8437.09, -8577.35, -9038.62, -8683.25, -172111.47, -154895.11, -157067.14, -156813.53, 0.00, 0.00, 0.00
10, -8480.54, -8615.17, -9073.69, -8716.82, -172145.63, -154929.45, -157102.78, -156850.03, 0.09, -0.02, 1.01
11, -8492.61, -8625.40, -9083.21, -8725.90, -172154.84, -154938.64, -157112.53, -156859.98, 0.00, 0.00, 0.00
12, -8450.99, -8589.17, -9049.73, -8693.69, -172122.11, -154905.94, -157078.53, -156825.13, 0.00, 0.00, 0.00
13, -8432.17, -8572.90, -9034.44, -8679.00, -172107.17, -154891.30, -157063.13, -156809.48, 0.00, 0.00, 0.00
14, -8468.49, -8604.13, -9063.12, -8706.54, -172135.00, -154919.20, -157092.25, -156839.44, 0.00, 0.00, 0.00
15, -8490.56, -8623.12, -9080.57, -8723.33, -172151.81, -154936.16, -157110.00, -156857.58, 0.00, 0.00, 0.00
16, -8455.93, -8593.33, -9053.06, -8696.93, -172124.98, -154909.45, -157082.11, -156828.97, 0.00, 0.00, 0.00
17, -8428.04, -8569.08, -9030.71, -8675.40, -172103.17, -154887.81, -157059.64, -156805.97, 0.00, 0.00, 0.00
18, -8457.70, -8594.51, -9053.93, -8697.64, -172125.61, -154910.55, -157083.30, -156830.27, 0.00, 0.00, 0.00
19, -8493.24, -8625.58, -9082.90, -8725.58, -172153.67, -154938.83, -157112.48, -156860.09, 0.00, 0.00, 0.00
20, -8468.32, -8604.28, -9063.43, -8707.10, -172134.84, -154919.95, -157092.91, -156839.97, 0.07, 0.00, 0.99
21, -8432.06, -8572.99, -9034.51, -8679.32, -172106.69, -154891.92, -157063.83, -156810.20, 0.00, 0.00, 0.00
22, -8453.81, -8591.59, -9051.56, -8695.59, -172123.05, -154908.56, -157081.03, -156827.95, 0.00, 0.00, 0.00
23, -8491.09, -8623.59, -9080.91, -8723.64, -172151.20, -154936.88, -157110.55, -156858.14, 0.00, 0.00, 0.00
24, -8474.80, -8609.71, -9068.30, -8711.61, -172138.94, -154924.73, -157097.80, -156844.98, 0.00, 0.00, 0.00
25, -8433.27, -8573.88, -9035.18, -8679.90, -172106.84, -154892.69, -157064.56, -156810.98, 0.00, 0.00, 0.00
26, -8443.97, -8582.78, -9043.18, -8687.59, -172114.44, -154900.53, -157072.78, -156819.52, 0.00, 0.00, 0.00
27, -8486.49, -8619.46, -9076.86, -8719.82, -172147.05, -154933.30, -157106.66, -156854.45, 0.00, 0.00, 0.00
28, -8479.04, -8612.82, -9070.87, -8713.98, -172141.16, -154927.45, -157100.59, -156848.25, 0.00, 0.00, 0.00
29, -8435.30, -8575.09, -9036.16, -8680.79, -172107.55, -154893.97, -157065.95, -156812.59, 0.00, 0.00, 0.00
30, -8435.35, -8574.96, -9035.89, -8680.43, -172107.16, -154893.77, -157065.81, -156812.41, 0.14, 0.02, 0.99
31, -8479.87, -8613.49, -9071.25, -8714.41, -172141.33, -154928.14, -157101.47, -156848.98, 0.00, 0.00, 0.00
32, -8484.83, -8617.83, -9075.32, -8718.39, -172145.17, -154932.27, -157105.67, -156853.16, 0.00, 0.00, 0.00
33, -8442.57, -8581.46, -9042.06, -8686.47, -172112.92, -154900.16, -157072.39, -156818.81, 0.00, 0.00, 0.00
34, -8430.45, -8570.71, -9031.98, -8676.63, -172102.92, -154890.30, -157062.23, -156808.59, 0.00, 0.00, 0.00
35, -8470.89, -8605.38, -9063.68, -8706.88, -172133.44, -154921.08, -157094.16, -156841.42, 0.00, 0.00, 0.00
36, -8485.71, -8618.03, -9075.28, -8717.98, -172144.50, -154932.23, -157105.73, -156853.27, 0.00, 0.00, 0.00
37, -8447.77, -8585.57, -9045.57, -8689.67, -172115.84, -154903.63, -157076.13, -156822.77, 0.00, 0.00, 0.00
38, -8426.50, -8567.16, -9028.56, -8673.39, -172099.38, -154887.34, -157059.20, -156805.50, 0.00, 0.00, 0.00
39, -8459.42, -8595.03, -9053.69, -8697.40, -172123.42, -154911.59, -157084.36, -156831.50, 0.00, 0.00, 0.00
40, -8484.23, -8616.28, -9073.06, -8715.97, -172141.95, -154930.23, -157103.66, -156851.38, 0.16, 0.05, 0.95
41, -8452.78, -8589.55, -9048.86, -8692.77, -172118.39, -154906.91, -157079.38, -156826.36, 0.00, 0.00, 0.00
42, -8423.48, -8564.43, -9025.79, -8670.82, -172096.31, -154884.86, -157056.72, -156802.98, 0.00, 0.00, 0.00
43, -8452.36, -8589.13, -9048.23, -8692.30, -172117.86, -154906.72, -157079.16, -156826.19, 0.00, 0.00, 0.00
44, -8483.96, -8615.90, -9072.62, -8715.48, -172141.03, -154930.08, -157103.39, -156851.11, 0.00, 0.00, 0.00
45, -8459.44, -8594.87, -9053.55, -8697.20, -172122.59, -154911.55, -157084.36, -156831.39, 0.00, 0.00, 0.00
46, -8425.09, -8565.72, -9027.13, -8672.07, -172097.16, -154886.39, -157058.22, -156804.50, 0.00, 0.00, 0.00
47, -8443.73, -8581.42, -9041.19, -8685.55, -172110.75, -154900.17, -157072.47, -156819.30, 0.00, 0.00, 0.00
48, -8482.35, -8614.45, -9071.23, -8714.25, -172139.66, -154929.17, -157102.38, -156850.13, 0.00, 0.00, 0.00
49, -8468.07, -8602.27, -9060.30, -8703.81, -172128.97, -154918.61, -157091.42, -156838.88, 0.18, 0.07, 0.91
50, -8427.10, -8567.27, -9028.38, -8673.28, -172098.25, -154888.00, -157059.72, -156806.25, 0.00, 0.00, 0.00
51, -8437.58, -8576.27, -9036.63, -8681.24, -172106.19, -154896.16, -157068.14, -156814.94, 0.00, 0.00, 0.00
52, -8479.49, -8612.08, -9069.17, -8712.22, -172137.30, -154927.52, -157100.61, -156848.31, 0.00, 0.00, 0.00
53, -8474.42, -8607.63, -9065.11, -8708.19, -172133.22, -154923.56, -157096.48, -156843.95, 0.00, 0.00, 0.00
54, -8432.96, -8572.41, -9033.23, -8677.84, -172102.53, -154892.98, -157064.78, -156811.31, 0.00, 0.00, 0.00
55, -8433.18, -8572.79, -9033.52, -8678.20, -172102.89, -154893.45, -157065.34, -156811.81, 0.00, 0.00, 0.00
56, -8475.98, -8609.40, -9066.76, -8710.14, -172134.89, -154925.67, -157098.66, -156846.13, 0.00, 0.00, 0.00
57, -8480.52, -8613.00, -9069.94, -8713.13, -172137.69, -154928.63, -157101.64, -156849.30, 0.00, 0.00, 0.00
58, -8439.64, -8578.11, -9038.29, -8682.96, -172107.13, -154898.17, -157070.16, -156816.80, 0.00, 0.00, 0.00
59, -8428.66, -8568.81, -9029.84, -8674.85, -172098.95, -154890.23, -157061.92, -156808.44, 0.22, 0.10, 0.92
60, -8466.59, -8601.00, -9058.89, -8702.50, -172126.75, -154918.33, -157090.88, -156838.31, 0.00, 0.00, 0.00
61, -8485.12, -8617.09, -9073.74, -8716.55, -172140.91, -154932.50, -157105.53, -156853.27, 0.00, 0.00, 0.00
62, -8448.29, -8585.55, -9045.21, -8689.33, -172113.45, -154905.09, -157077.19, -156823.97, 0.00, 0.00, 0.00
63, -8426.07, -8566.55, -9027.91, -8672.86, -172096.77, -154888.59, -157060.14, -156806.44, 0.00, 0.00, 0.00
64, -8459.53, -8595.18, -9053.84, -8697.62, -172121.53, -154913.59, -157085.97, -156833.17, 0.00, 0.00, 0.00
65, -8485.91, -8617.69, -9074.16, -8717.11, -172141.02, -154933.14, -157106.20, -156854.05, 0.00, 0.00, 0.00
66, -8454.57, -8590.80, -9049.71, -8693.76, -172117.44, -154909.59, -157081.89, -156828.86, 0.00, 0.00, 0.00
67, -8424.08, -8564.90, -9026.21, -8671.40, -172094.81, -154887.17, -157058.64, -156804.91, 0.00, 0.00, 0.00
68, -8450.93, -8587.90, -9046.96, -8691.30, -172114.70, -154907.23, -157079.53, -156826.42, 0.00, 0.00, 0.00
