%OpenBCI Raw EEG Data
%
%Sample Rate = 250.0 Hz
%First Column = SampleIndex
%Other Columns = EEG data in microvolts followed by Accel Data (in G) interleaved with Aux Data
0, 0.00, 0.00, 0.00, 147924.58, 0.00, 0.00, 0.00, 0.00, 0.11, 0.00, 0.00
1, 0.00, 0.00, 0.00, 56522.29, 0.00, 0.00, 0.00, 0.00, 0.09, 0.00, 0.00
2, 0.00, 0.00, 0.00, -67634.48, 0.00, 0.00, 0.00, 0.00, 0.08, 0.00, 0.00
3, 0.00, 0.00, 0.00, 71280.00, 0.00, 0.00, 0.00, 0.00, 0.07, 0.00, 0.00
4, 0.00, 0.00, 0.00, 149483.80, 0.00, 0.00, 0.00, 0.00, 0.06, 0.00, 0.00
5, 0.00, 0.00, 0.00, 88078.70, 0.00, 0.00, 0.00, 0.00, 0.06, 0.00, 0.00
6, 0.00, 0.00, 0.00, -61944.32, 0.00, 0.00, 0.00, 0.00, 0.05, 0.00, 0.00
7, 0.00, 0.00, 0.00, 41422.21, 0.00, 0.00, 0.00, 0.00, 0.05, 0.00, 0.00
8, 0.00, 0.00, 0.00, 147355.97, 0.00, 0.00, 0.00, 0.00, 0.05, 0.00, 0.00
9, 0.00, 0.00, 0.00, 112242.50, 0.00, 0.00, 0.00, 0.00, 0.05, 0.00, 0.00
10, 0.00, 0.00, 0.00, -45980.58, 0.00, 0.00, 0.00, 0.00, 0.04, 0.00, 0.00
11, 0.00, 0.00, 0.00, 7641.61, 0.00, 0.00, 0.00, 0.00, 0.04, 0.00, 0.00
12, 0.00, 0.00, 0.00, 140165.64, 0.00, 0.00, 0.00, 0.00, 0.04, 0.00, 0.00
13, 0.00, 0.00, 0.00, 127555.45, 0.00, 0.00, 0.00, 0.00, 0.04, 0.00, 0.00
14, 0.00, 0.00, 0.00, -25027.25, 0.00, 0.00, 0.00, 0.00, 0.04, 0.00, 0.00
15, 0.00, 0.00, 0.00, -28819.69, 0.00, 0.00, 0.00, 0.00, 0.04, 0.00, 0.00
16, 0.00, 0.00, 0.00, 125422.95, 0.00, 0.00, 0.00, 0.00, 0.04, 0.00, 0.00
17, 0.00, 0.00, 0.00, 136418.53, 0.00, 0.00, 0.00, 0.00, 0.04, 0.00, 0.00
18, 0.00, 0.00, 0.00, -2579.30, 0.00, 0.00, 0.00, 0.00, 0.04, 0.00, 0.00
19, 0.00, 0.00, 0.00, -60461.76, 0.00, 0.00, 0.00, 0.00, 0.04, 0.00, 0.00
20, 0.00, 0.00, 0.00, 100922.80, 0.00, 0.00, 0.00, 0.00, 0.04, 0.00, 0.00
21, 0.00, 0.00, 0.00, 141779.03, 0.00, 0.00, 0.00, 0.00, 0.04, 0.00, 0.00
22, 0.00, 0.00, 0.00, 23569.64, 0.00, 0.00, 0.00, 0.00, 0.04, 0.00, 0.00
23, 0.00, 0.00, 0.00, -77834.85, 0.00, 0.00, 0.00, 0.00, 0.04, 0.00, 0.00
24, 0.00, 0.00, 0.00, 71146.12, 0.00, 0.00, 0.00, 0.00, 0.04, 0.00, 0.00
25, 0.00, 0.00, 0.00, 145479.66, 0.00, 0.00, 0.00, 0.00, 0.04, 0.00, 0.00
26, 0.00, 0.00, 0.00, 58112.93, 0.00, 0.00, 0.00, 0.00, 0.04, 0.00, 0.00
27, 0.00, 0.00, 0.00, -77838.85, 0.00, 0.00, 0.00, 0.00, 0.04, 0.00, 0.00
28, 0.00, 0.00, 0.00, 45751.09, 0.00, 0.00, 0.00, 0.00, 0.04, 0.00, 0.00
29, 0.00, 0.00, 0.00, 146962.41, 0.00, 0.00, 0.00, 0.00, 0.04, 0.00, 0.00
30, 0.00, 0.00, 0.00, 95112.68, 0.00, 0.00, 0.00, 0.00, 0.04, 0.00, 0.00
31, 0.00, 0.00, 0.00, -62387.76, 0.00, 0.00, 0.00, 0.00, 0.04, 0.00, 0.00
32, 0.00, 0.00, 0.00, 19308.31, 0.00, 0.00, 0.00, 0.00, 0.04, 0.00, 0.00
33, 0.00, 0.00, 0.00, 143798.17, 0.00, 0.00, 0.00, 0.00, 0.04, 0.00, 0.00
34, 0.00, 0.00, 0.00, 118398.04, 0.00, 0.00, 0.00, 0.00, 0.04, 0.00, 0.00
35, 0.00, 0.00, 0.00, -41675.47, 0.00, 0.00, 0.00, 0.00, 0.04, 0.00, 0.00
36, 0.00, 0.00, 0.00, -14290.50, 0.00, 0.00, 0.00, 0.00, 0.04, 0.00, 0.00
37, 0.00, 0.00, 0.00, 133974.72, 0.00, 0.00, 0.00, 0.00, 0.04, 0.00, 0.00
38, 0.00, 0.00, 0.00, 133507.72, 0.00, 0.00, 0.00, 0.00, 0.04, 0.00, 0.00
39, 0.00, 0.00, 0.00, -14817.13, 0.00, 0.00, 0.00, 0.00, 0.04, 0.00, 0.00
40, 0.00, 0.00, 0.00, -42654.52, 0.00, 0.00, 0.00, 0.00, 0.04, 0.00, 0.00
41, 0.00, 0.00, 0.00, 118898.71, 0.00, 0.00, 0.00, 0.00, 0.04, 0.00, 0.00
42, 0.00, 0.00, 0.00, 144345.95, 0.00, 0.00, 0.00, 0.00, 0.04, 0.00, 0.00
43, 0.00, 0.00, 0.00, 19448.70, 0.00, 0.00, 0.00, 0.00, 0.04, 0.00, 0.00
44, 0.00, 0.00, 0.00, -61201.80, 0.00, 0.00, 0.00, 0.00, 0.04, 0.00, 0.00
45, 0.00, 0.00, 0.00, 99414.16, 0.00, 0.00, 0.00, 0.00, 0.04, 0.00, 0.00
46, 0.00, 0.00, 0.00, 152309.61, 0.00, 0.00, 0.00, 0.00, 0.04, 0.00, 0.00
47, 0.00, 0.00, 0.00, 63011.29, 0.00, 0.00, 0.00, 0.00, 0.04, 0.00, 0.00
48, 0.00, 0.00, 0.00, -63330.63, 0.00, 0.00, 0.00, 0.00, 0.04, 0.00, 0.00
49, 0.00, 0.00, 0.00, 78361.52, 0.00, 0.00, 0.00, 0.00, 0.04, 0.00, 0.00
50, 0.00, 0.00, 0.00, 156059.36, 0.00, 0.00, 0.00, 0.00, 0.04, 0.00, 0.00
51, 0.00, 0.00, 0.00, 100509.51, 0.00, 0.00, 0.00, 0.00, 0.04, 0.00, 0.00
52, 0.00, 0.00, 0.00, -50686.40, 0.00, 0.00, 0.00, 0.00, 0.04, 0.00, 0.00
53, 0.00, 0.00, 0.00, 54316.26, 0.00, 0.00, 0.00, 0.00, 0.04, 0.00, 0.00
54, 0.00, 0.00, 0.00, 156327.27, 0.00, 0.00, 0.00, 0.00, 0.04, 0.00, 0.00
55, 0.00, 0.00, 0.00, 127222.50, 0.00, 0.00, 0.00, 0.00, 0.04, 0.00, 0.00
56, 0.00, 0.00, 0.00, -26842.83, 0.00, 0.00, 0.00, 0.00, 0.04, 0.00, 0.00
57, 0.00, 0.00, 0.00, 25777.91, 0.00, 0.00, 0.00, 0.00, 0.04, 0.00, 0.00
58, 0.00, 0.00, 0.00, 152203.69, 0.00, 0.00, 0.00, 0.00, 0.04, 0.00, 0.00
59, 0.00, 0.00, 0.00, 144357.02, 0.00, 0.00, 0.00, 0.00, 0.04, 0.00, 0.00
60, 0.00, 0.00, 0.00, 3093.35, 0.00, 0.00, 0.00, 0.00, 0.04, 0.00, 0.00
61, 0.00, 0.00, 0.00, -2319.93, 0.00, 0.00, 0.00, 0.00, 0.04, 0.00, 0.00
62, 0.00, 0.00, 0.00, 143729.00, 0.00, 0.00, 0.00, 0.00, 0.04, 0.00, 0.00
63, 0.00, 0.00, 0.00, 155530.42, 0.00, 0.00, 0.00, 0.00, 0.04, 0.00, 0.00
64, 0.00, 0.00, 0.00, 36793.81, 0.00, 0.00, 0.00, 0.00, 0.04, 0.00, 0.00
65, 0.00, 0.00, 0.00, -27134.50, 0.00, 0.00, 0.00, 0.00, 0.04, 0.00, 0.00
66, 0.00, 0.00, 0.00, 128180.19, 0.00, 0.00, 0.00, 0.00, 0.04, 0.00, 0.00
67, 0.00, 0.00, 0.00, 160495.47, 0.00, 0.00, 0.00, 0.00, 0.04, 0.00, 0.00
68, 0.00, 0.00, 0.00, 63980.37, 0.00, 0.00, 0.00, 0.00, 0.04, 0.00, 0.00
69, 0.00, 0.00, 0.00, -49009.39, 0.00, 0.00, 0.00, 0.00, 0.04, 0.00, 0.00
70, 0.00, 0.00, 0.00, 101788.52, 0.00, 0.00, 0.00, 0.00, 0.04, 0.00, 0.00
71, 0.00, 0.00, 0.00, 161461.67, 0.00, 0.00, 0.00, 0.00, 0.04, 0.00, 0.00
72, 0.00, 0.00, 0.00, 88334.11, 0.00, 0.00, 0.00, 0.00, 0.04, 0.00, 0.00
73, 0.00, 0.00, 0.00, -58079.75, 0.00, 0.00, 0.00, 0.00, 0.04, 0.00, 0.00
74, 0.00, 0.00, 0.00, 66980.20, 0.00, 0.00, 0.00, 0.00, 0.04, 0.00, 0.00
75, 0.00, 0.00, 0.00, 159376.56, 0.00, 0.00, 0.00, 0.00, 0.04, 0.00, 0.00
76, 0.00, 0.00, 0.00, 110041.37, 0.00, 0.00, 0.00, 0.00, 0.04, 0.00, 0.00
77, 0.00, 0.00, 0.00, -52933.02, 0.00, 0.00, 0.00, 0.00, 0.04, 0.00, 0.00
78, 0.00, 0.00, 0.00, 27857.11, 0.00, 0.00, 0.00, 0.00, 0.04, 0.00, 0.00
79, 0.00, 0.00, 0.00, 153450.94, 0.00, 0.00, 0.00, 0.00, 0.04, 0.00, 0.00
80, 0.00, 0.00, 0.00, 128944.62, 0.00, 0.00, 0.00, 0.00, 0.04, 0.00, 0.00
81, 0.00, 0.00, 0.00, -34281.20, 0.00, 0.00, 0.00, 0.00, 0.04, 0.00, 0.00
82, 0.00, 0.00, 0.00, -7817.61, 0.00, 0.00, 0.00, 0.00, 0.04, 0.00, 0.00
83, 0.00, 0.00, 0.00, 143131.58, 0.00, 0.00, 0.00, 0.00, 0.04, 0.00, 0.00
84, 0.00, 0.00, 0.00, 143668.94, 0.00, 0.00, 0.00, 0.00, 0.04, 0.00, 0.00
85, 0.00, 0.00, 0.00, -6059.96, 0.00, 0.00, 0.00, 0.00, 0.04, 0.00, 0.00
86, 0.00, 0.00, 0.00, -37443.13, 0.00, 0.00, 0.00, 0.00, 0.04, 0.00, 0.00
87, 0.00, 0.00, 0.00, 127667.44, 0.00, 0.00, 0.00, 0.00, 0.04, 0.00, 0.00
88, 0.00, 0.00, 0.00, 153971.69, 0.00, 0.00, 0.00, 0.00, 0.04, 0.00, 0.00
89, 0.00, 0.00, 0.00, 28444.05, 0.00, 0.00, 0.00, 0.00, 0.04, 0.00, 0.00
90, 0.00, 0.00, 0.00, -57252.43, 0.00, 0.00, 0.00, 0.00, 0.04, 0.00, 0.00
91, 0.00, 0.00, 0.00, 106864.49, 0.00, 0.00, 0.00, 0.00, 0.04, 0.00, 0.00
92, 0.00, 0.00, 0.00, 159883.92, 0.00, 0.00, 0.00, 0.00, 0.04, 0.00, 0.00
93, 0.00, 0.00, 0.00, 64687.04, 0.00, 0.00, 0.00, 0.00, 0.04, 0.00, 0.00
94, 0.00, 0.00, 0.00, -64855.20, 0.00, 0.00, 0.00, 0.00, 0.04, 0.00, 0.00
95, 0.00, 0.00, 0.00, 80616.46, 0.00, 0.00, 0.00, 0.00, 0.04, 0.00, 0.00
96, 0.00, 0.00, 0.00, 161673.88, 0.00, 0.00, 0.00, 0.00, 0.04, 0.00, 0.00
97, 0.00, 0.00, 0.00, 97382.55, 0.00, 0.00, 0.00, 0.00, 0.04, 0.00, 0.00
98, 0.00, 0.00, 0.00, -59212.16, 0.00, 0.00, 0.00, 0.00, 0.04, 0.00, 0.00
99, 0.00, 0.00, 0.00, 50188.11, 0.00, 0.00, 0.00, 0.00, 0.04, 0.00, 0.00
100, 0.00, 0.00, 0.00, 160096.64, 0.00, 0.00, 0.00, 0.00, 0.04, 0.00, 0.00
101, 0.00, 0.00, 0.00, 124670.74, 0.00, 0.00, 0.00, 0.00, 0.04, 0.00, 0.00
102, 0.00, 0.00, 0.00, -38678.24, 0.00, 0.00, 0.00, 0.00, 0.04, 0.00, 0.00
103, 0.00, 0.00, 0.00, 20423.82, 0.00, 0.00, 0.00, 0.00, 0.04, 0.00, 0.00
104, 0.00, 0.00, 0.00, 155232.30, 0.00, 0.00, 0.00, 0.00, 0.04, 0.00, 0.00
105, 0.00, 0.00, 0.00, 144735.36, 0.00, 0.00, 0.00, 0.00, 0.04, 0.00, 0.00
106, 0.00, 0.00, 0.00, -7179.74, 0.00, 0.00, 0.00, 0.00, 0.04, 0.00, 0.00
107, 0.00, 0.00, 0.00, -7435.73, 0.00, 0.00, 0.00, 0.00, 0.04, 0.00, 0.00
108, 0.00, 0.00, 0.00, 145745.02, 0.00, 0.00, 0.00, 0.00, 0.04, 0.00, 0.00
109, 0.00, 0.00, 0.00, 157132.56, 0.00, 0.00, 0.00, 0.00, 0.04, 0.00, 0.00
110, 0.00, 0.00, 0.00, 27598.05, 0.00, 0.00, 0.00, 0.00, 0.04, 0.00, 0.00
111, 0.00, 0.00, 0.00, -31689.83, 0.00, 0.00, 0.00, 0.00, 0.04, 0.00, 0.00
112, 0.00, 0.00, 0.00, 130213.15, 0.00, 0.00, 0.00, 0.00, 0.04, 0.00, 0.00
113, 0.00, 0.00, 0.00, 163908.20, 0.00, 0.00, 0.00, 0.00, 0.04, 0.00, 0.00
114, 0.00, 0.00, 0.00, 62459.33, 0.00, 0.00, 0.00, 0.00, 0.04, 0.00, 0.00
115, 0.00, 0.00, 0.00, -46768.52, 0.00, 0.00, 0.00, 0.00, 0.04, 0.00, 0.00
116, 0.00, 0.00, 0.00, 108675.01, 0.00, 0.00, 0.00, 0.00, 0.04, 0.00, 0.00
117, 0.00, 0.00, 0.00, 166971.08, 0.00, 0.00, 0.00, 0.00, 0.04, 0.00, 0.00
118, 0.00, 0.00, 0.00, 95782.38, 0.00, 0.00, 0.00, 0.00, 0.04, 0.00, 0.00
119, 0.00, 0.00, 0.00, -47393.07, 0.00, 0.00, 0.00, 0.00, 0.04, 0.00, 0.00
120, 0.00, 0.00, 0.00, 82435.80, 0.00, 0.00, 0.00, 0.00, 0.04, 0.00, 0.00
121, 0.00, 0.00, 0.00, 167291.38, 0.00, 0.00, 0.00, 0.00, 0.04, 0.00, 0.00
122, 0.00, 0.00, 0.00, 123544.44, 0.00, 0.00, 0.00, 0.00, 0.04, 0.00, 0.00
123, 0.00, 0.00, 0.00, -32569.35, 0.00, 0.00, 0.00, 0.00, 0.04, 0.00, 0.00
124, 0.00, 0.00, 0.00, 54414.96, 0.00, 0.00, 0.00, 0.00, 0.04, 0.00, 0.00
125, 0.00, 0.00, 0.00, 165494.88, 0.00, 0.00, 0.00, 0.00, 0.04, 0.00, 0.00
126, 0.00, 0.00, 0.00, 145991.89, 0.00, 0.00, 0.00, 0.00, 0.04, 0.00, 0.00
127, 0.00, 0.00, 0.00, -995.08, 0.00, 0.00, 0.00, 0.00, 0.04, 0.00, 0.00
128, 0.00, 0.00, 0.00, 30356.51, 0.00, 0.00, 0.00, 0.00, 0.04, 0.00, 0.00
129, 0.00, 0.00, 0.00, 161331.00, 0.00, 0.00, 0.00, 0.00, 0.04, 0.00, 0.00
130, 0.00, 0.00, 0.00, 162076.30, 0.00, 0.00, 0.00, 0.00, 0.04, 0.00, 0.00
131, 0.00, 0.00, 0.00, 43964.41, 0.00, 0.00, 0.00, 0.00, 0.04, 0.00, 0.00
132, 0.00, 0.00, 0.00, 18189.11, 0.00, 0.00, 0.00, 0.00, 0.04, 0.00, 0.00
133, 0.00, 0.00, 0.00, 155171.27, 0.00, 0.00, 0.00, 0.00, 0.04, 0.00, 0.00
134, 0.00, 0.00, 0.00, 172361.17, 0.00, 0.00, 0.00, 0.00, 0.04, 0.00, 0.00
135, 0.00, 0.00, 0.00, 88818.86, 0.00, 0.00, 0.00, 0.00, 0.04, 0.00, 0.00
136, 0.00, 0.00, 0.00, 21288.43, 0.00, 0.00, 0.00, 0.00, 0.04, 0.00, 0.00
137, 0.00, 0.00, 0.00, 145609.39, 0.00, 0.00, 0.00, 0.00, 0.04, 0.00, 0.00
138, 0.00, 0.00, 0.00, 178236.31, 0.00, 0.00, 0.00, 0.00, 0.04, 0.00, 0.00
139, 0.00, 0.00, 0.00, 120594.27, 0.00, 0.00, 0.00, 0.00, 0.04, 0.00, 0.00
140, 0.00, 0.00, 0.00, 28990.28, 0.00, 0.00, 0.00, 0.00, 0.04, 0.00, 0.00
141, 0.00, 0.00, 0.00, 131471.97, 0.00, 0.00, 0.00, 0.00, 0.04, 0.00, 0.00
142, 0.00, 0.00, 0.00, 179862.64, 0.00, 0.00, 0.00, 0.00, 0.04, 0.00, 0.00
143, 0.00, 0.00, 0.00, 139112.64, 0.00, 0.00, 0.00, 0.00, 0.04, 0.00, 0.00
144, 0.00, 0.00, 0.00, 28112.08, 0.00, 0.00, 0.00, 0.00, 0.04, 0.00, 0.00
145, 0.00, 0.00, 0.00, 107698.62, 0.00, 0.00, 0.00, 0.00, 0.04, 0.00, 0.00
146, 0.00, 0.00, 0.00, 177237.45, 0.00, 0.00, 0.00, 0.00, 0.04, 0.00, 0.00
147, 0.00, 0.00, 0.00, 150739.13, 0.00, 0.00, 0.00, 0.00, 0.04, 0.00, 0.00
148, 0.00, 0.00, 0.00, 22362.76, 0.00, 0.00, 0.00, 0.00, 0.04, 0.00, 0.00
149, 0.00, 0.00, 0.00, 70029.22, 0.00, 0.00, 0.00, 0.00, 0.04, 0.00, 0.00
150, 0.00, 0.00, 0.00, 170427.58, 0.00, 0.00, 0.00, 0.00, 0.04, 0.00, 0.00
151, 0.00, 0.00, 0.00, 158696.91, 0.00, 0.00, 0.00, 0.00, 0.04, 0.00, 0.00
152, 0.00, 0.00, 0.00, 23585.96, 0.00, 0.00, 0.00, 0.00, 0.04, 0.00, 0.00
153, 0.00, 0.00, 0.00, 22217.07, 0.00, 0.00, 0.00, 0.00, 0.04, 0.00, 0.00
154, 0.00, 0.00, 0.00, 157662.98, 0.00, 0.00, 0.00, 0.00, 0.04, 0.00, 0.00
155, 0.00, 0.00, 0.00, 163746.92, 0.00, 0.00, 0.00, 0.00, 0.04, 0.00, 0.00
156, 0.00, 0.00, 0.00, 37539.11, 0.00, 0.00, 0.00, 0.00, 0.04, 0.00, 0.00
157, 0.00, 0.00, 0.00, -20153.32, 0.00, 0.00, 0.00, 0.00, 0.04, 0.00, 0.00
158, 0.00, 0.00, 0.00, 137500.73, 0.00, 0.00, 0.00, 0.00, 0.04, 0.00, 0.00
159, 0.00, 0.00, 0.00, 166822.02, 0.00, 0.00, 0.00, 0.00, 0.04, 0.00, 0.00
160, 0.00, 0.00, 0.00, 59381.54, 0.00, 0.00, 0.00, 0.00, 0.04, 0.00, 0.00
161, 0.00, 0.00, 0.00, -49700.84, 0.00, 0.00, 0.00, 0.00, 0.04, 0.00, 0.00
162, 0.00, 0.00, 0.00, 108220.23, 0.00, 0.00, 0.00, 0.00, 0.04, 0.00, 0.00
163, 0.00, 0.00, 0.00, 167206.88, 0.00, 0.00, 0.00, 0.00, 0.04, 0.00, 0.00
164, 0.00, 0.00, 0.00, 83305.93, 0.00, 0.00, 0.00, 0.00, 0.04, 0.00, 0.00
165, 0.00, 0.00, 0.00, -61994.48, 0.00, 0.00, 0.00, 0.00, 0.04, 0.00, 0.00
166, 0.00, 0.00, 0.00, 72008.80, 0.00, 0.00, 0.00, 0.00, 0.04, 0.00, 0.00
167, 0.00, 0.00, 0.00, 165264.34, 0.00, 0.00, 0.00, 0.00, 0.04, 0.00, 0.00
168, 0.00, 0.00, 0.00, 107554.31, 0.00, 0.00, 0.00, 0.00, 0.04, 0.00, 0.00
169, 0.00, 0.00, 0.00, -58057.85, 0.00, 0.00, 0.00, 0.00, 0.04, 0.00, 0.00
170, 0.00, 0.00, 0.00, 32666.47, 0.00, 0.00, 0.00, 0.00, 0.04, 0.00, 0.00
171, 0.00, 0.00, 0.00, 159320.08, 0.00, 0.00, 0.00, 0.00, 0.04, 0.00, 0.00
172, 0.00, 0.00, 0.00, 126860.63, 0.00, 0.00, 0.00, 0.00, 0.04, 0.00, 0.00
173, 0.00, 0.00, 0.00, -43885.23, 0.00, 0.00, 0.00, 0.00, 0.04, 0.00, 0.00
174, 0.00, 0.00, 0.00, -8698.78, 0.00, 0.00, 0.00, 0.00, 0.04, 0.00, 0.00
175, 0.00, 0.00, 0.00, 146521.25, 0.00, 0.00, 0.00, 0.00, 0.04, 0.00, 0.00
176, 0.00, 0.00, 0.00, 139837.52, 0.00, 0.00, 0.00, 0.00, 0.04, 0.00, 0.00
177, 0.00, 0.00, 0.00, -24717.81, 0.00, 0.00, 0.00, 0.00, 0.04, 0.00, 0.00
178, 0.00, 0.00, 0.00, -48950.79, 0.00, 0.00, 0.00, 0.00, 0.04, 0.00, 0.00
179, 0.00, 0.00, 0.00, 122771.35, 0.00, 0.00, 0.00, 0.00, 0.04, 0.00, 0.00
180, 0.00, 0.00, 0.00, 146175.73, 0.00, 0.00, 0.00, 0.00, 0.04, 0.00, 0.00
181, 0.00, 0.00, 0.00, -7182.20, 0.00, 0.00, 0.00, 0.00, 0.04, 0.00, 0.00
182, 0.00, 0.00, 0.00, -80579.87, 0.00, 0.00, 0.00, 0.00, 0.04, 0.00, 0.00
183, 0.00, 0.00, 0.00, 83473.21, 0.00, 0.00, 0.00, 0.00, 0.04, 0.00, 0.00
184, 0.00, 0.00, 0.00, 147056.64, 0.00, 0.00, 0.00, 0.00, 0.04, 0.00, 0.00
185, 0.00, 0.00, 0.00, 6936.73, 0.00, 0.00, 0.00, 0.00, 0.04, 0.00, 0.00
186, 0.00, 0.00, 0.00, -98038.46, 0.00, 0.00, 0.00, 0.00, 0.04, 0.00, 0.00
187, 0.00, 0.00, 0.00, 30616.12, 0.00, 0.00, 0.00, 0.00, 0.04, 0.00, 0.00
188, 0.00, 0.00, 0.00, 141855.20, 0.00, 0.00, 0.00, 0.00, 0.04, 0.00, 0.00
189, 0.00, 0.00, 0.00, 20060.87, 0.00, 0.00, 0.00, 0.00, 0.04, 0.00, 0.00
190, 0.00, 0.00, 0.00, -103711.66, 0.00, 0.00, 0.00, 0.00, 0.04, 0.00, 0.00
191, 0.00, 0.00, 0.00, -25922.32, 0.00, 0.00, 0.00, 0.00, 0.04, 0.00, 0.00
192, 0.00, 0.00, 0.00, 125845.19, 0.00, 0.00, 0.00, 0.00, 0.04, 0.00, 0.00
193, 0.00, 0.00, 0.00, 34432.14, 0.00, 0.00, 0.00, 0.00, 0.04, 0.00, 0.00
194, 0.00, 0.00, 0.00, -102086.72, 0.00, 0.00, 0.00, 0.00, 0.04, 0.00, 0.00
195, 0.00, 0.00, 0.00, -71154.85, 0.00, 0.00, 0.00, 0.00, 0.04, 0.00, 0.00
196, 0.00, 0.00, 0.00, 93997.13, 0.00, 0.00, 0.00, 0.00, 0.04, 0.00, 0.00
197, 0.00, 0.00, 0.00, 48320.00, 0.00, 0.00, 0.00, 0.00, 0.04, 0.00, 0.00
198, 0.00, 0.00, 0.00, -98030.14, 0.00, 0.00, 0.00, 0.00, 0.04, 0.00, 0.00
199, 0.00, 0.00, 0.00, -98508.65, 0.00, 0.00, 0.00, 0.00, 0.04, 0.00, 0.00
200, 0.00, 0.00, 0.00, 43272.73, 0.00, 0.00, 0.00, 0.00, 0.04, 0.00, 0.00
201, 0.00, 0.00, 0.00, 56904.14, 0.00, 0.00, 0.00, 0.00, 0.04, 0.00, 0.00
202, 0.00, 0.00, 0.00, -93433.10, 0.00, 0.00, 0.00, 0.00, 0.04, 0.00, 0.00
203, 0.00, 0.00, 0.00, -109729.16, 0.00, 0.00, 0.00, 0.00, 0.04, 0.00, 0.00
204, 0.00, 0.00, 0.00, -15223.77, 0.00, 0.00, 0.00, 0.00, 0.04, 0.00, 0.00
205, 0.00, 0.00, 0.00, 54635.39, 0.00, 0.00, 0.00, 0.00, 0.04, 0.00, 0.00
206, 0.00, 0.00, 0.00, -88610.38, 0.00, 0.00, 0.00, 0.00, 0.04, 0.00, 0.00
207, 0.00, 0.00, 0.00, -112113.80, 0.00, 0.00, 0.00, 0.00, 0.04, 0.00, 0.00
208, 0.00, 0.00, 0.00, -69155.16, 0.00, 0.00, 0.00, 0.00, 0.04, 0.00, 0.00
209, 0.00, 0.00, 0.00, 28066.88, 0.00, 0.00, 0.00, 0.00, 0.04, 0.00, 0.00
210, 0.00, 0.00, 0.00, -85719.41, 0.00, 0.00, 0.00, 0.00, 0.04, 0.00, 0.00
211, 0.00, 0.00, 0.00, -112282.53, 0.00, 0.00, 0.00, 0.00, 0.04, 0.00, 0.00
212, 0.00, 0.00, 0.00, -103762.47, 0.00, 0.00, 0.00, 0.00, 0.04, 0.00, 0.00
213, 0.00, 0.00, 0.00, -48443.34, 0.00, 0.00, 0.00, 0.00, 0.04, 0.00, 0.00
214, 0.00, 0.00, 0.00, -93113.03, 0.00, 0.00, 0.00, 0.00, 0.04, 0.00, 0.00
215, 0.00, 0.00, 0.00, -112414.25, 0.00, 0.00, 0.00, 0.00, 0.04, 0.00, 0.00
216, 0.00, 0.00, 0.00, -112579.41, 0.00, 0.00, 0.00, 0.00, 0.04, 0.00, 0.00
217, 0.00, 0.00, 0.00, -110259.52, 0.00, 0.00, 0.00, 0.00, 0.04, 0.00, 0.00
218, 0.00, 0.00, 0.00, -111029.27, 0.00, 0.00, 0.00, 0.00, 0.04, 0.00, 0.00
219, 0.00, 0.00, 0.00, -112574.22, 0.00, 0.00, 0.00, 0.00, 0.04, 0.00, 0.00
220, 0.00, 0.00, 0.00, -112755.85, 0.00, 0.00, 0.00, 0.00, 0.04, 0.00, 0.00
221, 0.00, 0.00, 0.00, -112840.70, 0.00, 0.00, 0.00, 0.00, 0.04, 0.00, 0.00
222, 0.00, 0.00, 0.00, -112737.10, 0.00, 0.00, 0.00, 0.00, 0.04, 0.00, 0.00
223, 0.00, 0.00, 0.00, -112752.41, 0.00, 0.00, 0.00, 0.00, 0.04, 0.00, 0.00
224, 0.00, 0.00, 0.00, -112904.18, 0.00, 0.00, 0.00, 0.00, 0.04, 0.00, 0.00
225, 0.00, 0.00, 0.00, -113029.13, 0.00, 0.00, 0.00, 0.00, 0.04, 0.00, 0.00
226, 0.00, 0.00, 0.00, -112958.00, 0.00, 0.00, 0.00, 0.00, 0.04, 0.00, 0.00
227, 0.00, 0.00, 0.00, -112946.00, 0.00, 0.00, 0.00, 0.00, 0.04, 0.00, 0.00
228, 0.00, 0.00, 0.00, -113076.55, 0.00, 0.00, 0.00, 0.00, 0.04, 0.00, 0.00
229, 0.00, 0.00, 0.00, -113214.95, 0.00, 0.00, 0.00, 0.00, 0.04, 0.00, 0.00
230, 0.00, 0.00, 0.00, -113194.86, 0.00, 0.00, 0.00, 0.00, 0.04, 0.00, 0.00
231, 0.00, 0.00, 0.00, -113162.45, 0.00, 0.00, 0.00, 0.00, 0.04, 0.00, 0.00
232, 0.00, 0.00, 0.00, -113281.70, 0.00, 0.00, 0.00, 0.00, 0.04, 0.00, 0.00
233, 0.00, 0.00, 0.00, -113421.95, 0.00, 0.00, 0.00, 0.00, 0.04, 0.00, 0.00
234, 0.00, 0.00, 0.00, -113465.72, 0.00, 0.00, 0.00, 0.00, 0.04, 0.00, 0.00
235, 0.00, 0.00, 0.00, -113424.64, 0.00, 0.00, 0.00, 0.00, 0.04, 0.00, 0.00
236, 0.00, 0.00, 0.00, -113536.20, 0.00, 0.00, 0.00, 0.00, 0.04, 0.00, 0.00
237, 0.00, 0.00, 0.00, -113659.60, 0.00, 0.00, 0.00, 0.00, 0.04, 0.00, 0.00
238, 0.00, 0.00, 0.00, -113755.29, 0.00, 0.00, 0.00, 0.00, 0.04, 0.00, 0.00
239, 0.00, 0.00, 0.00, -113713.36, 0.00, 0.00, 0.00, 0.00, 0.04, 0.00, 0.00
240, 0.00, 0.00, 0.00, -113814.90, 0.00, 0.00, 0.00, 0.00, 0.04, 0.00, 0.00
241, 0.00, 0.00, 0.00, -113929.97, 0.00, 0.00, 0.00, 0.00, 0.04, 0.00, 0.00
242, 0.00, 0.00, 0.00, -114071.99, 0.00, 0.00, 0.00, 0.00, 0.04, 0.00, 0.00
243, 0.00, 0.00, 0.00, -114050.87, 0.00, 0.00, 0.00, 0.00, 0.04, 0.00, 0.00
244, 0.00, 0.00, 0.00, -114142.91, 0.00, 0.00, 0.00, 0.00, 0.04, 0.00, 0.00
245, 0.00, 0.00, 0.00, -114255.23, 0.00, 0.00, 0.00, 0.00, 0.04, 0.00, 0.00
246, 0.00, 0.00, 0.00, -114420.27, 0.00, 0.00, 0.00, 0.00, 0.04, 0.00, 0.00
247, 0.00, 0.00, 0.00, -114439.16, 0.00, 0.00, 0.00, 0.00, 0.04, 0.00, 0.00
248, 0.00, 0.00, 0.00, -114518.87, 0.00, 0.00, 0.00, 0.00, 0.04, 0.00, 0.00
249, 0.00, 0.00, 0.00, -114629.29, 0.00, 0.00, 0.00, 0.00, 0.04, 0.00, 0.00
250, 0.00, 0.00, 0.00, -114796.56, 0.00, 0.00, 0.00, 0.00, 0.04, 0.00, 0.00
251, 0.00, 0.00, 0.00, -114869.61, 0.00, 0.00, 0.00, 0.00, 0.04, 0.00, 0.00
252, 0.00, 0.00, 0.00, -114934.52, 0.00, 0.00, 0.00, 0.00, 0.04, 0.00, 0.00
253, 0.00, 0.00, 0.00, -115032.71, 0.00, 0.00, 0.00, 0.00, 0.04, 0.00, 0.00
254, 0.00, 0.00, 0.00, -115178.87, 0.00, 0.00, 0.00, 0.00, 0.04, 0.00, 0.00
255, 0.00, 0.00, 0.00, -115294.45, 0.00, 0.00, 0.00, 0.00, 0.04, 0.00, 0.00
0, 0.00, 0.00, 0.00, -115329.55, 0.00, 0.00, 0.00, 0.00, 0.04, 0.00, 0.00
1, 0.00, 0.00, 0.00, -115420.20, 0.00, 0.00, 0.00, 0.00, 0.04, 0.00, 0.00
2, 0.00, 0.00, 0.00, -115545.57, 0.00, 0.00, 0.00, 0.00, 0.04, 0.00, 0.00
3, 0.00, 0.00, 0.00, -115702.52, 0.00, 0.00, 0.00, 0.00, 0.04, 0.00, 0.00
4, 0.00, 0.00, 0.00, -115676.91, 0.00, 0.00, 0.00, 0.00, 0.04, 0.00, 0.00
5, 0.00, 0.00, 0.00, -115764.77, 0.00, 0.00, 0.00, 0.00, 0.04, 0.00, 0.00
6, 0.00, 0.00, 0.00, -88847.20, 0.00, 0.00, 0.00, 0.00, 0.04, 0.00, 0.00
7, 0.00, 0.00, 0.00, 77669.23, 0.00, 0.00, 0.00, 0.00, 0.04, 0.00, 0.00
8, 0.00, 0.00, 0.00, -17806.09, 0.00, 0.00, 0.00, 0.00, 0.04, 0.00, 0.00
9, 0.00, 0.00, 0.00, -114812.26, 0.00, 0.00, 0.00, 0.00, 0.04, 0.00, 0.00
10, 0.00, 0.00, 0.00, -101979.80, 0.00, 0.00, 0.00, 0.00, 0.04, 0.00, 0.00
11, 0.00, 0.00, 0.00, 77657.09, 0.00, 0.00, 0.00, 0.00, 0.04, 0.00, 0.00
12, 0.00, 0.00, 0.00, 99776.87, 0.00, 0.00, 0.00, 0.00, 0.04, 0.00, 0.00
13, 0.00, 0.00, 0.00, -93846.99, 0.00, 0.00, 0.00, 0.00, 0.04, 0.00, 0.00
14, 0.00, 0.00, 0.00, -106675.35, 0.00, 0.00, 0.00, 0.00, 0.04, 0.00, 0.00
15, 0.00, 0.00, 0.00, 57579.28, 0.00, 0.00, 0.00, 0.00, 0.04, 0.00, 0.00
16, 0.00, 0.00, 0.00, 187500.00, 0.00, 0.00, 0.00, 0.00, 0.04, 0.00, 0.00
17, 0.00, 0.00, 0.00, 69746.91, 0.00, 0.00, 0.00, 0.00, 0.04, 0.00, 0.00
18, 0.00, 0.00, 0.00, -84481.23, 0.00, 0.00, 0.00, 0.00, 0.04, 0.00, 0.00
19, 0.00, 0.00, 0.00, 95734.98, 0.00, 0.00, 0.00, 0.00, 0.04, 0.00, 0.00
20, 0.00, 0.00, 0.00, 187500.00, 0.00, 0.00, 0.00, 0.00, 0.04, 0.00, 0.00
21, 0.00, 0.00, 0.00, 4830.57, 0.00, 0.00, 0.00, 0.00, 0.04, 0.00, 0.00
22, 0.00, 0.00, 0.00, -103837.55, 0.00, 0.00, 0.00, 0.00, 0.04, 0.00, 0.00
23, 0.00, 0.00, 0.00, 59681.10, 0.00, 0.00, 0.00, 0.00, 0.04, 0.00, 0.00
24, 0.00, 0.00, 0.00, 187500.00, 0.00, 0.00, 0.00, 0.00, 0.04, 0.00, 0.00
25, 0.00, 0.00, 0.00, 20671.59, 0.00, 0.00, 0.00, 0.00, 0.04, 0.00, 0.00
26, 0.00, 0.00, 0.00, -108970.38, 0.00, 0.00, 0.00, 0.00, 0.04, 0.00, 0.00
27, 0.00, 0.00, 0.00, 12740.61, 0.00, 0.00, 0.00, 0.00, 0.04, 0.00, 0.00
28, 0.00, 0.00, 0.00, 187500.00, 0.00, 0.00, 0.00, 0.00, 0.04, 0.00, 0.00
29, 0.00, 0.00, 0.00, 82258.80, 0.00, 0.00, 0.00, 0.00, 0.04, 0.00, 0.00
30, 0.00, 0.00, 0.00, -99486.72, 0.00, 0.00, 0.00, 0.00, 0.04, 0.00, 0.00
31, 0.00, 0.00, 0.00, -25386.98, 0.00, 0.00, 0.00, 0.00, 0.04, 0.00, 0.00
32, 0.00, 0.00, 0.00, 178343.52, 0.00, 0.00, 0.00, 0.00, 0.04, 0.00, 0.00
33, 0.00, 0.00, 0.00, 115253.32, 0.00, 0.00, 0.00, 0.00, 0.04, 0.00, 0.00
34, 0.00, 0.00, 0.00, -87311.03, 0.00, 0.00, 0.00, 0.00, 0.04, 0.00, 0.00
35, 0.00, 0.00, 0.00, -56591.60, 0.00, 0.00, 0.00, 0.00, 0.04, 0.00, 0.00
36, 0.00, 0.00, 0.00, 157784.61, 0.00, 0.00, 0.00, 0.00, 0.04, 0.00, 0.00
37, 0.00, 0.00, 0.00, 140091.13, 0.00, 0.00, 0.00, 0.00, 0.04, 0.00, 0.00
38, 0.00, 0.00, 0.00, -72365.60, 0.00, 0.00, 0.00, 0.00, 0.04, 0.00, 0.00
39, 0.00, 0.00, 0.00, -86758.54, 0.00, 0.00, 0.00, 0.00, 0.04, 0.00, 0.00
40, 0.00, 0.00, 0.00, 116410.07, 0.00, 0.00, 0.00, 0.00, 0.04, 0.00, 0.00
41, 0.00, 0.00, 0.00, 179194.89, 0.00, 0.00, 0.00, 0.00, 0.04, 0.00, 0.00
42, 0.00, 0.00, 0.00, -23350.71, 0.00, 0.00, 0.00, 0.00, 0.04, 0.00, 0.00
43, 0.00, 0.00, 0.00, -103822.11, 0.00, 0.00, 0.00, 0.00, 0.04, 0.00, 0.00
44, 0.00, 0.00, 0.00, 63795.96, 0.00, 0.00, 0.00, 0.00, 0.04, 0.00, 0.00
45, 0.00, 0.00, 0.00, 187500.00, 0.00, 0.00, 0.00, 0.00, 0.04, 0.00, 0.00
46, 0.00, 0.00, 0.00, 16572.43, 0.00, 0.00, 0.00, 0.00, 0.04, 0.00, 0.00
47, 0.00, 0.00, 0.00, -109123.25, 0.00, 0.00, 0.00, 0.00, 0.04, 0.00, 0.00
48, 0.00, 0.00, 0.00, 7780.57, 0.00, 0.00, 0.00, 0.00, 0.04, 0.00, 0.00
49, 0.00, 0.00, 0.00, 187132.63, 0.00, 0.00, 0.00, 0.00, 0.04, 0.00, 0.00
50, 0.00, 0.00, 0.00, 61182.78, 0.00, 0.00, 0.00, 0.00, 0.04, 0.00, 0.00
51, 0.00, 0.00, 0.00, -104144.58, 0.00, 0.00, 0.00, 0.00, 0.04, 0.00, 0.00
52, 0.00, 0.00, 0.00, -23922.58, 0.00, 0.00, 0.00, 0.00, 0.04, 0.00, 0.00
53, 0.00, 0.00, 0.00, 178484.69, 0.00, 0.00, 0.00, 0.00, 0.04, 0.00, 0.00
54, 0.00, 0.00, 0.00, 105006.34, 0.00, 0.00, 0.00, 0.00, 0.04, 0.00, 0.00
55, 0.00, 0.00, 0.00, -91652.68, 0.00, 0.00, 0.00, 0.00, 0.04, 0.00, 0.00
56, 0.00, 0.00, 0.00, -55221.19, 0.00, 0.00, 0.00, 0.00, 0.04, 0.00, 0.00
57, 0.00, 0.00, 0.00, 158874.98, 0.00, 0.00, 0.00, 0.00, 0.04, 0.00, 0.00
58, 0.00, 0.00, 0.00, 143986.31, 0.00, 0.00, 0.00, 0.00, 0.04, 0.00, 0.00
59, 0.00, 0.00, 0.00, -69409.25, 0.00, 0.00, 0.00, 0.00, 0.04, 0.00, 0.00
60, 0.00, 0.00, 0.00, -82213.24, 0.00, 0.00, 0.00, 0.00, 0.04, 0.00, 0.00
61, 0.00, 0.00, 0.00, 125196.23, 0.00, 0.00, 0.00, 0.00, 0.04, 0.00, 0.00
62, 0.00, 0.00, 0.00, 176074.05, 0.00, 0.00, 0.00, 0.00, 0.04, 0.00, 0.00
63, 0.00, 0.00, 0.00, -29802.79, 0.00, 0.00, 0.00, 0.00, 0.04, 0.00, 0.00
64, 0.00, 0.00, 0.00, -99627.60, 0.00, 0.00, 0.00, 0.00, 0.04, 0.00, 0.00
65, 0.00, 0.00, 0.00, 80991.01, 0.00, 0.00, 0.00, 0.00, 0.04, 0.00, 0.00
66, 0.00, 0.00, 0.00, 181411.06, 0.00, 0.00, 0.00, 0.00, 0.04, 0.00, 0.00
67, 0.00, 0.00, 0.00, -13844.69, 0.00, 0.00, 0.00, 0.00, 0.04, 0.00, 0.00
68, 0.00, 0.00, 0.00, -102386.45, 0.00, 0.00, 0.00, 0.00, 0.04, 0.00, 0.00
69, 0.00, 0.00, 0.00, 66621.41, 0.00, 0.00, 0.00, 0.00, 0.04, 0.00, 0.00
70, 0.00, 0.00, 0.00, 187500.00, 0.00, 0.00, 0.00, 0.00, 0.04, 0.00, 0.00
71, 0.00, 0.00, 0.00, 32204.91, 0.00, 0.00, 0.00, 0.00, 0.04, 0.00, 0.00
72, 0.00, 0.00, 0.00, -101013.07, 0.00, 0.00, 0.00, 0.00, 0.04, 0.00, 0.00
73, 0.00, 0.00, 0.00, 52619.74, 0.00, 0.00, 0.00, 0.00, 0.04, 0.00, 0.00
74, 0.00, 0.00, 0.00, 187500.00, 0.00, 0.00, 0.00, 0.00, 0.04, 0.00, 0.00
75, 0.00, 0.00, 0.00, 69836.44, 0.00, 0.00, 0.00, 0.00, 0.04, 0.00, 0.00
76, 0.00, 0.00, 0.00, -95950.98, 0.00, 0.00, 0.00, 0.00, 0.04, 0.00, 0.00
77, 0.00, 0.00, 0.00, 37749.21, 0.00, 0.00, 0.00, 0.00, 0.04, 0.00, 0.00
78, 0.00, 0.00, 0.00, 187500.00, 0.00, 0.00, 0.00, 0.00, 0.04, 0.00, 0.00
79, 0.00, 0.00, 0.00, 103691.21, 0.00, 0.00, 0.00, 0.00, 0.04, 0.00, 0.00
80, 0.00, 0.00, 0.00, -87415.93, 0.00, 0.00, 0.00, 0.00, 0.04, 0.00, 0.00
81, 0.00, 0.00, 0.00, 13408.81, 0.00, 0.00, 0.00, 0.00, 0.04, 0.00, 0.00
82, 0.00, 0.00, 0.00, 187500.00, 0.00, 0.00, 0.00, 0.00, 0.04, 0.00, 0.00
83, 0.00, 0.00, 0.00, 127309.54, 0.00, 0.00, 0.00, 0.00, 0.04, 0.00, 0.00
84, 0.00, 0.00, 0.00, -77207.59, 0.00, 0.00, 0.00, 0.00, 0.04, 0.00, 0.00
85, 0.00, 0.00, 0.00, -17896.64, 0.00, 0.00, 0.00, 0.00, 0.04, 0.00, 0.00
86, 0.00, 0.00, 0.00, 181301.94, 0.00, 0.00, 0.00, 0.00, 0.04, 0.00, 0.00
87, 0.00, 0.00, 0.00, 148883.36, 0.00, 0.00, 0.00, 0.00, 0.04, 0.00, 0.00
88, 0.00, 0.00, 0.00, -61745.53, 0.00, 0.00, 0.00, 0.00, 0.04, 0.00, 0.00
89, 0.00, 0.00, 0.00, -52271.34, 0.00, 0.00, 0.00, 0.00, 0.04, 0.00, 0.00
90, 0.00, 0.00, 0.00, 158706.64, 0.00, 0.00, 0.00, 0.00, 0.04, 0.00, 0.00
91, 0.00, 0.00, 0.00, 176854.08, 0.00, 0.00, 0.00, 0.00, 0.04, 0.00, 0.00
92, 0.00, 0.00, 0.00, -25526.92, 0.00, 0.00, 0.00, 0.00, 0.04, 0.00, 0.00
93, 0.00, 0.00, 0.00, -78593.31, 0.00, 0.00, 0.00, 0.00, 0.04, 0.00, 0.00
94, 0.00, 0.00, 0.00, 123106.16, 0.00, 0.00, 0.00, 0.00, 0.04, 0.00, 0.00
95, 0.00, 0.00, 0.00, 187500.00, 0.00, 0.00, 0.00, 0.00, 0.04, 0.00, 0.00
96, 0.00, 0.00, 0.00, 10674.99, 0.00, 0.00, 0.00, 0.00, 0.04, 0.00, 0.00
97, 0.00, 0.00, 0.00, -92452.98, 0.00, 0.00, 0.00, 0.00, 0.04, 0.00, 0.00
98, 0.00, 0.00, 0.00, 81090.02, 0.00, 0.00, 0.00, 0.00, 0.04, 0.00, 0.00
99, 0.00, 0.00, 0.00, 187500.00, 0.00, 0.00, 0.00, 0.00, 0.04, 0.00, 0.00
100, 0.00, 0.00, 0.00, 63090.01, 0.00, 0.00, 0.00, 0.00, 0.04, 0.00, 0.00
101, 0.00, 0.00, 0.00, -92685.73, 0.00, 0.00, 0.00, 0.00, 0.04, 0.00, 0.00
102, 0.00, 0.00, 0.00, 41352.25, 0.00, 0.00, 0.00, 0.00, 0.04, 0.00, 0.00
103, 0.00, 0.00, 0.00, 187500.00, 0.00, 0.00, 0.00, 0.00, 0.04, 0.00, 0.00
104, 0.00, 0.00, 0.00, 115428.83, 0.00, 0.00, 0.00, 0.00, 0.04, 0.00, 0.00
105, 0.00, 0.00, 0.00, -78923.91, 0.00, 0.00, 0.00, 0.00, 0.04, 0.00, 0.00
106, 0.00, 0.00, 0.00, 4867.56, 0.00, 0.00, 0.00, 0.00, 0.04, 0.00, 0.00
107, 0.00, 0.00, 0.00, 187500.00, 0.00, 0.00, 0.00, 0.00, 0.04, 0.00, 0.00
108, 0.00, 0.00, 0.00, 146024.08, 0.00, 0.00, 0.00, 0.00, 0.04, 0.00, 0.00
109, 0.00, 0.00, 0.00, -60551.12, 0.00, 0.00, 0.00, 0.00, 0.04, 0.00, 0.00
110, 0.00, 0.00, 0.00, -25304.32, 0.00, 0.00, 0.00, 0.00, 0.04, 0.00, 0.00
111, 0.00, 0.00, 0.00, 175888.84, 0.00, 0.00, 0.00, 0.00, 0.04, 0.00, 0.00
112, 0.00, 0.00, 0.00, 171649.50, 0.00, 0.00, 0.00, 0.00, 0.04, 0.00, 0.00
113, 0.00, 0.00, 0.00, -31207.86, 0.00, 0.00, 0.00, 0.00, 0.04, 0.00, 0.00
114, 0.00, 0.00, 0.00, -56596.47, 0.00, 0.00, 0.00, 0.00, 0.04, 0.00, 0.00
115, 0.00, 0.00, 0.00, 150230.00, 0.00, 0.00, 0.00, 0.00, 0.04, 0.00, 0.00
116, 0.00, 0.00, 0.00, 187500.00, 0.00, 0.00, 0.00, 0.00, 0.04, 0.00, 0.00
117, 0.00, 0.00, 0.00, 5785.06, 0.00, 0.00, 0.00, 0.00, 0.04, 0.00, 0.00
118, 0.00, 0.00, 0.00, -76685.01, 0.00, 0.00, 0.00, 0.00, 0.04, 0.00, 0.00
119, 0.00, 0.00, 0.00, 114979.07, 0.00, 0.00, 0.00, 0.00, 0.04, 0.00, 0.00
120, 0.00, 0.00, 0.00, 187500.00, 0.00, 0.00, 0.00, 0.00, 0.04, 0.00, 0.00
121, 0.00, 0.00, 0.00, 47493.81, 0.00, 0.00, 0.00, 0.00, 0.04, 0.00, 0.00
122, 0.00, 0.00, 0.00, -84911.01, 0.00, 0.00, 0.00, 0.00, 0.04, 0.00, 0.00
123, 0.00, 0.00, 0.00, 74735.65, 0.00, 0.00, 0.00, 0.00, 0.04, 0.00, 0.00
124, 0.00, 0.00, 0.00, 187500.00, 0.00, 0.00, 0.00, 0.00, 0.04, 0.00, 0.00
125, 0.00, 0.00, 0.00, 89560.73, 0.00, 0.00, 0.00, 0.00, 0.04, 0.00, 0.00
126, 0.00, 0.00, 0.00, -82214.95, 0.00, 0.00, 0.00, 0.00, 0.04, 0.00, 0.00
127, 0.00, 0.00, 0.00, 31006.52, 0.00, 0.00, 0.00, 0.00, 0.04, 0.00, 0.00
128, 0.00, 0.00, 0.00, 187500.00, 0.00, 0.00, 0.00, 0.00, 0.04, 0.00, 0.00
129, 0.00, 0.00, 0.00, 131998.69, 0.00, 0.00, 0.00, 0.00, 0.04, 0.00, 0.00
130, 0.00, 0.00, 0.00, -66115.16, 0.00, 0.00, 0.00, 0.00, 0.04, 0.00, 0.00
131, 0.00, 0.00, 0.00, -12151.32, 0.00, 0.00, 0.00, 0.00, 0.04, 0.00, 0.00
132, 0.00, 0.00, 0.00, 181366.27, 0.00, 0.00, 0.00, 0.00, 0.04, 0.00, 0.00
133, 0.00, 0.00, 0.00, 187500.00, 0.00, 0.00, 0.00, 0.00, 0.04, 0.00, 0.00
134, 0.00, 0.00, 0.00, 163909.31, 0.00, 0.00, 0.00, 0.00, 0.04, 0.00, 0.00
135, 0.00, 0.00, 0.00, 187305.22, 0.00, 0.00, 0.00, 0.00, 0.04, 0.00, 0.00
136, 0.00, 0.00, 0.00, 187500.00, 0.00, 0.00, 0.00, 0.00, 0.04, 0.00, 0.00
137, 0.00, 0.00, 0.00, 187500.00, 0.00, 0.00, 0.00, 0.00, 0.04, 0.00, 0.00
138, 0.00, 0.00, 0.00, 187500.00, 0.00, 0.00, 0.00, 0.00, 0.04, 0.00, 0.00
139, 0.00, 0.00, 0.00, 187500.00, 0.00, 0.00, 0.00, 0.00, 0.04, 0.00, 0.00
140, 0.00, 0.00, 0.00, 187500.00, 0.00, 0.00, 0.00, 0.00, 0.04, 0.00, 0.00
141, 0.00, 0.00, 0.00, 187500.00, 0.00, 0.00, 0.00, 0.00, 0.04, 0.00, 0.00
142, 0.00, 0.00, 0.00, 187500.00, 0.00, 0.00, 0.00, 0.00, 0.04, 0.00, 0.00
143, 0.00, 0.00, 0.00, 187500.00, 0.00, 0.00, 0.00, 0.00, 0.04, 0.00, 0.00
144, 0.00, 0.00, 0.00, 187500.00, 0.00, 0.00, 0.00, 0.00, 0.04, 0.00, 0.00
145, 0.00, 0.00, 0.00, 187500.00, 0.00, 0.00, 0.00, 0.00, 0.04, 0.00, 0.00
146, 0.00, 0.00, 0.00, 187500.00, 0.00, 0.00, 0.00, 0.00, 0.04, 0.00, 0.00
147, 0.00, 0.00, 0.00, 187500.00, 0.00, 0.00, 0.00, 0.00, 0.04, 0.00, 0.00
148, 0.00, 0.00, 0.00, 187500.00, 0.00, 0.00, 0.00, 0.00, 0.04, 0.00, 0.00
149, 0.00, 0.00, 0.00, 187500.00, 0.00, 0.00, 0.00, 0.00, 0.04, 0.00, 0.00
150, 0.00, 0.00, 0.00, 187500.00, 0.00, 0.00, 0.00, 0.00, 0.04, 0.00, 0.00
151, 0.00, 0.00, 0.00, 187500.00, 0.00, 0.00, 0.00, 0.00, 0.04, 0.00, 0.00
152, 0.00, 0.00, 0.00, 187500.00, 0.00, 0.00, 0.00, 0.00, 0.04, 0.00, 0.00
153, 0.00, 0.00, 0.00, 187500.00, 0.00, 0.00, 0.00, 0.00, 0.04, 0.00, 0.00
154, 0.00, 0.00, 0.00, 187500.00, 0.00, 0.00, 0.00, 0.00, 0.04, 0.00, 0.00
155, 0.00, 0.00, 0.00, 187500.00, 0.00, 0.00, 0.00, 0.00, 0.04, 0.00, 0.00
156, 0.00, 0.00, 0.00, 187500.00, 0.00, 0.00, 0.00, 0.00, 0.04, 0.00, 0.00
157, 0.00, 0.00, 0.00, 187500.00, 0.00, 0.00, 0.00, 0.00, 0.04, 0.00, 0.00
158, 0.00, 0.00, 0.00, 187500.00, 0.00, 0.00, 0.00, 0.00, 0.04, 0.00, 0.00
159, 0.00, 0.00, 0.00, 187500.00, 0.00, 0.00, 0.00, 0.00, 0.04, 0.00, 0.00
160, 0.00, 0.00, 0.00, 187500.00, 0.00, 0.00, 0.00, 0.00, 0.04, 0.00, 0.00
161, 0.00, 0.00, 0.00, 187500.00, 0.00, 0.00, 0.00, 0.00, 0.04, 0.00, 0.00
162, 0.00, 0.00, 0.00, 187500.00, 0.00, 0.00, 0.00, 0.00, 0.04, 0.00, 0.00
163, 0.00, 0.00, 0.00, 187500.00, 0.00, 0.00, 0.00, 0.00, 0.04, 0.00, 0.00
164, 0.00, 0.00, 0.00, 187500.00, 0.00, 0.00, 0.00, 0.00, 0.04, 0.00, 0.00
165, 0.00, 0.00, 0.00, 187500.00, 0.00, 0.00, 0.00, 0.00, 0.04, 0.00, 0.00
166, 0.00, 0.00, 0.00, 187500.00, 0.00, 0.00, 0.00, 0.00, 0.04, 0.00, 0.00
167, 0.00, 0.00, 0.00, 187500.00, 0.00, 0.00, 0.00, 0.00, 0.04, 0.00, 0.00
168, 0.00, 0.00, 0.00, 187500.00, 0.00, 0.00, 0.00, 0.00, 0.04, 0.00, 0.00
169, 0.00, 0.00, 0.00, 187500.00, 0.00, 0.00, 0.00, 0.00, 0.04, 0.00, 0.00
170, 0.00, 0.00, 0.00, 187500.00, 0.00, 0.00, 0.00, 0.00, 0.04, 0.00, 0.00
171, 0.00, 0.00, 0.00, 182086.67, 0.00, 0.00, 0.00, 0.00, 0.04, 0.00, 0.00
172, 0.00, 0.00, 0.00, 112779.14, 0.00, 0.00, 0.00, 0.00, 0.04, 0.00, 0.00
173, 0.00, 0.00, 0.00, 150704.44, 0.00, 0.00, 0.00, 0.00, 0.04, 0.00, 0.00
174, 0.00, 0.00, 0.00, 187500.00, 0.00, 0.00, 0.00, 0.00, 0.04, 0.00, 0.00
175, 0.00, 0.00, 0.00, 99339.13, 0.00, 0.00, 0.00, 0.00, 0.04, 0.00, 0.00
176, 0.00, 0.00, 0.00, -35338.29, 0.00, 0.00, 0.00, 0.00, 0.04, 0.00, 0.00
177, 0.00, 0.00, 0.00, 15948.17, 0.00, 0.00, 0.00, 0.00, 0.04, 0.00, 0.00
178, 0.00, 0.00, 0.00, 180365.47, 0.00, 0.00, 0.00, 0.00, 0.04, 0.00, 0.00
179, 0.00, 0.00, 0.00, 123884.56, 0.00, 0.00, 0.00, 0.00, 0.04, 0.00, 0.00
180, 0.00, 0.00, 0.00, -34910.05, 0.00, 0.00, 0.00, 0.00, 0.04, 0.00, 0.00
181, 0.00, 0.00, 0.00, -16679.68, 0.00, 0.00, 0.00, 0.00, 0.04, 0.00, 0.00
182, 0.00, 0.00, 0.00, 160179.50, 0.00, 0.00, 0.00, 0.00, 0.04, 0.00, 0.00
183, 0.00, 0.00, 0.00, 156194.88, 0.00, 0.00, 0.00, 0.00, 0.04, 0.00, 0.00
184, 0.00, 0.00, 0.00, -22063.12, 0.00, 0.00, 0.00, 0.00, 0.04, 0.00, 0.00
185, 0.00, 0.00, 0.00, -42298.30, 0.00, 0.00, 0.00, 0.00, 0.04, 0.00, 0.00
186, 0.00, 0.00, 0.00, 130895.19, 0.00, 0.00, 0.00, 0.00, 0.04, 0.00, 0.00
187, 0.00, 0.00, 0.00, 180258.14, 0.00, 0.00, 0.00, 0.00, 0.04, 0.00, 0.00
188, 0.00, 0.00, 0.00, 3977.05, 0.00, 0.00, 0.00, 0.00, 0.04, 0.00, 0.00
189, 0.00, 0.00, 0.00, -60646.74, 0.00, 0.00, 0.00, 0.00, 0.04, 0.00, 0.00
190, 0.00, 0.00, 0.00, 95434.70, 0.00, 0.00, 0.00, 0.00, 0.04, 0.00, 0.00
191, 0.00, 0.00, 0.00, 187500.00, 0.00, 0.00, 0.00, 0.00, 0.04, 0.00, 0.00
192, 0.00, 0.00, 0.00, 39448.39, 0.00, 0.00, 0.00, 0.00, 0.04, 0.00, 0.00
193, 0.00, 0.00, 0.00, -71401.57, 0.00, 0.00, 0.00, 0.00, 0.04, 0.00, 0.00
194, 0.00, 0.00, 0.00, 55233.91, 0.00, 0.00, 0.00, 0.00, 0.04, 0.00, 0.00
195, 0.00, 0.00, 0.00, 187500.00, 0.00, 0.00, 0.00, 0.00, 0.04, 0.00, 0.00
196, 0.00, 0.00, 0.00, 78779.26, 0.00, 0.00, 0.00, 0.00, 0.04, 0.00, 0.00
197, 0.00, 0.00, 0.00, -73273.98, 0.00, 0.00, 0.00, 0.00, 0.04, 0.00, 0.00
198, 0.00, 0.00, 0.00, 14017.09, 0.00, 0.00, 0.00, 0.00, 0.04, 0.00, 0.00
199, 0.00, 0.00, 0.00, 187500.00, 0.00, 0.00, 0.00, 0.00, 0.04, 0.00, 0.00
200, 0.00, 0.00, 0.00, 119829.80, 0.00, 0.00, 0.00, 0.00, 0.04, 0.00, 0.00
201, 0.00, 0.00, 0.00, -64186.61, 0.00, 0.00, 0.00, 0.00, 0.04, 0.00, 0.00
202, 0.00, 0.00, 0.00, -23072.05, 0.00, 0.00, 0.00, 0.00, 0.04, 0.00, 0.00
203, 0.00, 0.00, 0.00, 172726.36, 0.00, 0.00, 0.00, 0.00, 0.04, 0.00, 0.00
204, 0.00, 0.00, 0.00, 158681.13, 0.00, 0.00, 0.00, 0.00, 0.04, 0.00, 0.00
205, 0.00, 0.00, 0.00, -39555.14, 0.00, 0.00, 0.00, 0.00, 0.04, 0.00, 0.00
206, 0.00, 0.00, 0.00, -47771.06, 0.00, 0.00, 0.00, 0.00, 0.04, 0.00, 0.00
207, 0.00, 0.00, 0.00, 152506.03, 0.00, 0.00, 0.00, 0.00, 0.04, 0.00, 0.00
208, 0.00, 0.00, 0.00, 184363.00, 0.00, 0.00, 0.00, 0.00, 0.04, 0.00, 0.00
209, 0.00, 0.00, 0.00, -727.82, 0.00, 0.00, 0.00, 0.00, 0.04, 0.00, 0.00
210, 0.00, 0.00, 0.00, -71968.99, 0.00, 0.00, 0.00, 0.00, 0.04, 0.00, 0.00
211, 0.00, 0.00, 0.00, 111607.60, 0.00, 0.00, 0.00, 0.00, 0.04, 0.00, 0.00
212, 0.00, 0.00, 0.00, 187500.00, 0.00, 0.00, 0.00, 0.00, 0.04, 0.00, 0.00
213, 0.00, 0.00, 0.00, 53901.34, 0.00, 0.00, 0.00, 0.00, 0.04, 0.00, 0.00
214, 0.00, 0.00, 0.00, -77094.20, 0.00, 0.00, 0.00, 0.00, 0.04, 0.00, 0.00
215, 0.00, 0.00, 0.00, 78104.50, 0.00, 0.00, 0.00, 0.00, 0.04, 0.00, 0.00
216, 0.00, 0.00, 0.00, 187500.00, 0.00, 0.00, 0.00, 0.00, 0.04, 0.00, 0.00
217, 0.00, 0.00, 0.00, 84122.48, 0.00, 0.00, 0.00, 0.00, 0.04, 0.00, 0.00
218, 0.00, 0.00, 0.00, -77568.06, 0.00, 0.00, 0.00, 0.00, 0.04, 0.00, 0.00
219, 0.00, 0.00, 0.00, 37825.05, 0.00, 0.00, 0.00, 0.00, 0.04, 0.00, 0.00
220, 0.00, 0.00, 0.00, 187500.00, 0.00, 0.00, 0.00, 0.00, 0.04, 0.00, 0.00
221, 0.00, 0.00, 0.00, 133431.55, 0.00, 0.00, 0.00, 0.00, 0.04, 0.00, 0.00
222, 0.00, 0.00, 0.00, -59938.08, 0.00, 0.00, 0.00, 0.00, 0.04, 0.00, 0.00
223, 0.00, 0.00, 0.00, 789.58, 0.00, 0.00, 0.00, 0.00, 0.04, 0.00, 0.00
224, 0.00, 0.00, 0.00, 185798.00, 0.00, 0.00, 0.00, 0.00, 0.04, 0.00, 0.00
225, 0.00, 0.00, 0.00, 162632.14, 0.00, 0.00, 0.00, 0.00, 0.04, 0.00, 0.00
226, 0.00, 0.00, 0.00, -35890.48, 0.00, 0.00, 0.00, 0.00, 0.04, 0.00, 0.00
227, 0.00, 0.00, 0.00, -33578.82, 0.00, 0.00, 0.00, 0.00, 0.04, 0.00, 0.00
228, 0.00, 0.00, 0.00, 165744.28, 0.00, 0.00, 0.00, 0.00, 0.04, 0.00, 0.00
229, 0.00, 0.00, 0.00, 182805.03, 0.00, 0.00, 0.00, 0.00, 0.04, 0.00, 0.00
230, 0.00, 0.00, 0.00, -3852.26, 0.00, 0.00, 0.00, 0.00, 0.04, 0.00, 0.00
231, 0.00, 0.00, 0.00, -60416.11, 0.00, 0.00, 0.00, 0.00, 0.04, 0.00, 0.00
232, 0.00, 0.00, 0.00, 133562.98, 0.00, 0.00, 0.00, 0.00, 0.04, 0.00, 0.00
233, 0.00, 0.00, 0.00, 187500.00, 0.00, 0.00, 0.00, 0.00, 0.04, 0.00, 0.00
234, 0.00, 0.00, 0.00, 29516.53, 0.00, 0.00, 0.00, 0.00, 0.04, 0.00, 0.00
235, 0.00, 0.00, 0.00, -79703.70, 0.00, 0.00, 0.00, 0.00, 0.04, 0.00, 0.00
236, 0.00, 0.00, 0.00, 78748.57, 0.00, 0.00, 0.00, 0.00, 0.04, 0.00, 0.00
237, 0.00, 0.00, 0.00, 187500.00, 0.00, 0.00, 0.00, 0.00, 0.04, 0.00, 0.00
238, 0.00, 0.00, 0.00, 112563.25, 0.00, 0.00, 0.00, 0.00, 0.04, 0.00, 0.00
239, 0.00, 0.00, 0.00, -71919.30, 0.00, 0.00, 0.00, 0.00, 0.04, 0.00, 0.00
240, 0.00, 0.00, 0.00, -37937.17, 0.00, 0.00, 0.00, 0.00, 0.04, 0.00, 0.00
241, 0.00, 0.00, 0.00, 163371.55, 0.00, 0.00, 0.00, 0.00, 0.04, 0.00, 0.00
242, 0.00, 0.00, 0.00, 180949.97, 0.00, 0.00, 0.00, 0.00, 0.04, 0.00, 0.00
243, 0.00, 0.00, 0.00, -9640.80, 0.00, 0.00, 0.00, 0.00, 0.04, 0.00, 0.00
244, 0.00, 0.00, 0.00, -46497.19, 0.00, 0.00, 0.00, 0.00, 0.04, 0.00, 0.00
245, 0.00, 0.00, 0.00, 153323.81, 0.00, 0.00, 0.00, 0.00, 0.04, 0.00, 0.00
246, 0.00, 0.00, 0.00, 163123.27, 0.00, 0.00, 0.00, 0.00, 0.04, 0.00, 0.00
247, 0.00, 0.00, 0.00, -35402.50, 0.00, 0.00, 0.00, 0.00, 0.04, 0.00, 0.00
248, 0.00, 0.00, 0.00, -76359.16, 0.00, 0.00, 0.00, 0.00, 0.04, 0.00, 0.00
249, 0.00, 0.00, 0.00, 99822.28, 0.00, 0.00, 0.00, 0.00, 0.04, 0.00, 0.00
250, 0.00, 0.00, 0.00, 171240.47, 0.00, 0.00, 0.00, 0.00, 0.04, 0.00, 0.00
251, 0.00, 0.00, 0.00, -19291.88, 0.00, 0.00, 0.00, 0.00, 0.04, 0.00, 0.00
252, 0.00, 0.00, 0.00, -90367.45, 0.00, 0.00, 0.00, 0.00, 0.04, 0.00, 0.00
253, 0.00, 0.00, 0.00, 34141.26, 0.00, 0.00, 0.00, 0.00, 0.04, 0.00, 0.00
254, 0.00, 0.00, 0.00, 172091.69, 0.00, 0.00, 0.00, 0.00, 0.04, 0.00, 0.00
255, 0.00, 0.00, 0.00, 2888.96, 0.00, 0.00, 0.00, 0.00, 0.04, 0.00, 0.00
0, 0.00, 0.00, 0.00, -92636.91, 0.00, 0.00, 0.00, 0.00, 0.04, 0.00, 0.00
1, 0.00, 0.00, 0.00, -13861.19, 0.00, 0.00, 0.00, 0.00, 0.04, 0.00, 0.00
2, 0.00, 0.00, 0.00, 163585.61, 0.00, 0.00, 0.00, 0.00, 0.04, 0.00, 0.00
3, 0.00, 0.00, 0.00, 34925.70, 0.00, 0.00, 0.00, 0.00, 0.04, 0.00, 0.00
4, 0.00, 0.00, 0.00, -89889.64, 0.00, 0.00, 0.00, 0.00, 0.04, 0.00, 0.00
5, 0.00, 0.00, 0.00, -46436.57, 0.00, 0.00, 0.00, 0.00, 0.04, 0.00, 0.00
6, 0.00, 0.00, 0.00, 145602.67, 0.00, 0.00, 0.00, 0.00, 0.04, 0.00, 0.00
7, 0.00, 0.00, 0.00, 76162.54, 0.00, 0.00, 0.00, 0.00, 0.04, 0.00, 0.00
8, 0.00, 0.00, 0.00, -82080.56, 0.00, 0.00, 0.00, 0.00, 0.04, 0.00, 0.00
9, 0.00, 0.00, 0.00, -65442.64, 0.00, 0.00, 0.00, 0.00, 0.04, 0.00, 0.00
10, 0.00, 0.00, 0.00, 121751.27, 0.00, 0.00, 0.00, 0.00, 0.04, 0.00, 0.00
11, 0.00, 0.00, 0.00, 117292.20, 0.00, 0.00, 0.00, 0.00, 0.04, 0.00, 0.00
12, 0.00, 0.00, 0.00, -67241.51, 0.00, 0.00, 0.00, 0.00, 0.04, 0.00, 0.00
13, 0.00, 0.00, 0.00, -57758.29, 0.00, 0.00, 0.00, 0.00, 0.04, 0.00, 0.00
14, 0.00, 0.00, 0.00, 134536.55, 0.00, 0.00, 0.00, 0.00, 0.04, 0.00, 0.00
15, 0.00, 0.00, 0.00, 155828.59, 0.00, 0.00, 0.00, 0.00, 0.04, 0.00, 0.00
16, 0.00, 0.00, 0.00, -40449.95, 0.00, 0.00, 0.00, 0.00, 0.04, 0.00, 0.00
17, 0.00, 0.00, 0.00, -53468.48, 0.00, 0.00, 0.00, 0.00, 0.04, 0.00, 0.00
18, 0.00, 0.00, 0.00, 143331.36, 0.00, 0.00, 0.00, 0.00, 0.04, 0.00, 0.00
19, 0.00, 0.00, 0.00, 179557.33, 0.00, 0.00, 0.00, 0.00, 0.04, 0.00, 0.00
20, 0.00, 0.00, 0.00, -10348.43, 0.00, 0.00, 0.00, 0.00, 0.04, 0.00, 0.00
21, 0.00, 0.00, 0.00, -69819.05, 0.00, 0.00, 0.00, 0.00, 0.04, 0.00, 0.00
22, 0.00, 0.00, 0.00, 111991.53, 0.00, 0.00, 0.00, 0.00, 0.04, 0.00, 0.00
23, 0.00, 0.00, 0.00, 187500.00, 0.00, 0.00, 0.00, 0.00, 0.04, 0.00, 0.00
24, 0.00, 0.00, 0.00, 16837.70, 0.00, 0.00, 0.00, 0.00, 0.04, 0.00, 0.00
25, 0.00, 0.00, 0.00, -77038.34, 0.00, 0.00, 0.00, 0.00, 0.04, 0.00, 0.00
26, 0.00, 0.00, 0.00, 84295.87, 0.00, 0.00, 0.00, 0.00, 0.04, 0.00, 0.00
27, 0.00, 0.00, 0.00, 187500.00, 0.00, 0.00, 0.00, 0.00, 0.04, 0.00, 0.00
28, 0.00, 0.00, 0.00, 54514.47, 0.00, 0.00, 0.00, 0.00, 0.04, 0.00, 0.00
29, 0.00, 0.00, 0.00, -79297.10, 0.00, 0.00, 0.00, 0.00, 0.04, 0.00, 0.00
30, 0.00, 0.00, 0.00, 48464.28, 0.00, 0.00, 0.00, 0.00, 0.04, 0.00, 0.00
31, 0.00, 0.00, 0.00, 187500.00, 0.00, 0.00, 0.00, 0.00, 0.04, 0.00, 0.00
32, 0.00, 0.00, 0.00, 93446.70, 0.00, 0.00, 0.00, 0.00, 0.04, 0.00, 0.00
33, 0.00, 0.00, 0.00, -73616.41, 0.00, 0.00, 0.00, 0.00, 0.04, 0.00, 0.00
34, 0.00, 0.00, 0.00, 11882.23, 0.00, 0.00, 0.00, 0.00, 0.04, 0.00, 0.00
35, 0.00, 0.00, 0.00, 187500.00, 0.00, 0.00, 0.00, 0.00, 0.04, 0.00, 0.00
36, 0.00, 0.00, 0.00, 129195.07, 0.00, 0.00, 0.00, 0.00, 0.04, 0.00, 0.00
37, 0.00, 0.00, 0.00, -59645.70, 0.00, 0.00, 0.00, 0.00, 0.04, 0.00, 0.00
38, 0.00, 0.00, 0.00, -20966.29, 0.00, 0.00, 0.00, 0.00, 0.04, 0.00, 0.00
39, 0.00, 0.00, 0.00, 172536.66, 0.00, 0.00, 0.00, 0.00, 0.04, 0.00, 0.00
40, 0.00, 0.00, 0.00, 158496.28, 0.00, 0.00, 0.00, 0.00, 0.04, 0.00, 0.00
41, 0.00, 0.00, 0.00, -37694.92, 0.00, 0.00, 0.00, 0.00, 0.04, 0.00, 0.00
42, 0.00, 0.00, 0.00, -46458.70, 0.00, 0.00, 0.00, 0.00, 0.04, 0.00, 0.00
43, 0.00, 0.00, 0.00, 148850.94, 0.00, 0.00, 0.00, 0.00, 0.04, 0.00, 0.00
44, 0.00, 0.00, 0.00, 178899.05, 0.00, 0.00, 0.00, 0.00, 0.04, 0.00, 0.00
45, 0.00, 0.00, 0.00, -9388.29, 0.00, 0.00, 0.00, 0.00, 0.04, 0.00, 0.00
46, 0.00, 0.00, 0.00, -64432.19, 0.00, 0.00, 0.00, 0.00, 0.04, 0.00, 0.00
47, 0.00, 0.00, 0.00, 116733.01, 0.00, 0.00, 0.00, 0.00, 0.04, 0.00, 0.00
48, 0.00, 0.00, 0.00, 187500.00, 0.00, 0.00, 0.00, 0.00, 0.04, 0.00, 0.00
49, 0.00, 0.00, 0.00, 25736.94, 0.00, 0.00, 0.00, 0.00, 0.04, 0.00, 0.00
50, 0.00, 0.00, 0.00, -73748.95, 0.00, 0.00, 0.00, 0.00, 0.04, 0.00, 0.00
51, 0.00, 0.00, 0.00, 80825.88, 0.00, 0.00, 0.00, 0.00, 0.04, 0.00, 0.00
52, 0.00, 0.00, 0.00, 187500.00, 0.00, 0.00, 0.00, 0.00, 0.04, 0.00, 0.00
53, 0.00, 0.00, 0.00, 91118.91, 0.00, 0.00, 0.00, 0.00, 0.04, 0.00, 0.00
54, 0.00, 0.00, 0.00, -69903.67, 0.00, 0.00, 0.00, 0.00, 0.04, 0.00, 0.00
55, 0.00, 0.00, 0.00, 32435.46, 0.00, 0.00, 0.00, 0.00, 0.04, 0.00, 0.00
56, 0.00, 0.00, 0.00, 187500.00, 0.00, 0.00, 0.00, 0.00, 0.04, 0.00, 0.00
57, 0.00, 0.00, 0.00, 121589.59, 0.00, 0.00, 0.00, 0.00, 0.04, 0.00, 0.00
58, 0.00, 0.00, 0.00, -60282.09, 0.00, 0.00, 0.00, 0.00, 0.04, 0.00, 0.00
59, 0.00, 0.00, 0.00, 414.83, 0.00, 0.00, 0.00, 0.00, 0.04, 0.00, 0.00
60, 0.00, 0.00, 0.00, 183381.02, 0.00, 0.00, 0.00, 0.00, 0.04, 0.00, 0.00
61, 0.00, 0.00, 0.00, 156224.03, 0.00, 0.00, 0.00, 0.00, 0.04, 0.00, 0.00
62, 0.00, 0.00, 0.00, -37531.13, 0.00, 0.00, 0.00, 0.00, 0.04, 0.00, 0.00
63, 0.00, 0.00, 0.00, -31824.64, 0.00, 0.00, 0.00, 0.00, 0.04, 0.00, 0.00
64, 0.00, 0.00, 0.00, 161943.38, 0.00, 0.00, 0.00, 0.00, 0.04, 0.00, 0.00
65, 0.00, 0.00, 0.00, 181793.80, 0.00, 0.00, 0.00, 0.00, 0.04, 0.00, 0.00
66, 0.00, 0.00, 0.00, -2008.75, 0.00, 0.00, 0.00, 0.00, 0.04, 0.00, 0.00
67, 0.00, 0.00, 0.00, -61188.39, 0.00, 0.00, 0.00, 0.00, 0.04, 0.00, 0.00
68, 0.00, 0.00, 0.00, 117997.49, 0.00, 0.00, 0.00, 0.00, 0.04, 0.00, 0.00
69, 0.00, 0.00, 0.00, 187500.00, 0.00, 0.00, 0.00, 0.00, 0.04, 0.00, 0.00
70, 0.00, 0.00, 0.00, 40474.22, 0.00, 0.00, 0.00, 0.00, 0.04, 0.00, 0.00
71, 0.00, 0.00, 0.00, -68137.26, 0.00, 0.00, 0.00, 0.00, 0.04, 0.00, 0.00
72, 0.00, 0.00, 0.00, 89071.43, 0.00, 0.00, 0.00, 0.00, 0.04, 0.00, 0.00
73, 0.00, 0.00, 0.00, 187500.00, 0.00, 0.00, 0.00, 0.00, 0.04, 0.00, 0.00
74, 0.00, 0.00, 0.00, 89625.73, 0.00, 0.00, 0.00, 0.00, 0.04, 0.00, 0.00
75, 0.00, 0.00, 0.00, -65455.38, 0.00, 0.00, 0.00, 0.00, 0.04, 0.00, 0.00
76, 0.00, 0.00, 0.00, 60243.78, 0.00, 0.00, 0.00, 0.00, 0.04, 0.00, 0.00
77, 0.00, 0.00, 0.00, 187500.00, 0.00, 0.00, 0.00, 0.00, 0.04, 0.00, 0.00
78, 0.00, 0.00, 0.00, 120703.91, 0.00, 0.00, 0.00, 0.00, 0.04, 0.00, 0.00
79, 0.00, 0.00, 0.00, -60891.20, 0.00, 0.00, 0.00, 0.00, 0.04, 0.00, 0.00
80, 0.00, 0.00, 0.00, -1471.01, 0.00, 0.00, 0.00, 0.00, 0.04, 0.00, 0.00
81, 0.00, 0.00, 0.00, 182404.33, 0.00, 0.00, 0.00, 0.00, 0.04, 0.00, 0.00
82, 0.00, 0.00, 0.00, 127927.45, 0.00, 0.00, 0.00, 0.00, 0.04, 0.00, 0.00
83, 0.00, 0.00, 0.00, -58534.59, 0.00, 0.00, 0.00, 0.00, 0.04, 0.00, 0.00
84, 0.00, 0.00, 0.00, -14206.19, 0.00, 0.00, 0.00, 0.00, 0.04, 0.00, 0.00
85, 0.00, 0.00, 0.00, 176185.70, 0.00, 0.00, 0.00, 0.00, 0.04, 0.00, 0.00
86, 0.00, 0.00, 0.00, 154591.45, 0.00, 0.00, 0.00, 0.00, 0.04, 0.00, 0.00
87, 0.00, 0.00, 0.00, -40748.05, 0.00, 0.00, 0.00, 0.00, 0.04, 0.00, 0.00
88, 0.00, 0.00, 0.00, -44110.59, 0.00, 0.00, 0.00, 0.00, 0.04, 0.00, 0.00
89, 0.00, 0.00, 0.00, 151285.67, 0.00, 0.00, 0.00, 0.00, 0.04, 0.00, 0.00
90, 0.00, 0.00, 0.00, 178730.89, 0.00, 0.00, 0.00, 0.00, 0.04, 0.00, 0.00
91, 0.00, 0.00, 0.00, -9615.99, 0.00, 0.00, 0.00, 0.00, 0.04, 0.00, 0.00
92, 0.00, 0.00, 0.00, -63829.92, 0.00, 0.00, 0.00, 0.00, 0.04, 0.00, 0.00
93, 0.00, 0.00, 0.00, 118589.97, 0.00, 0.00, 0.00, 0.00, 0.04, 0.00, 0.00
94, 0.00, 0.00, 0.00, 187500.00, 0.00, 0.00, 0.00, 0.00, 0.04, 0.00, 0.00
95, 0.00, 0.00, 0.00, 29032.95, 0.00, 0.00, 0.00, 0.00, 0.04, 0.00, 0.00
96, 0.00, 0.00, 0.00, -74435.66, 0.00, 0.00, 0.00, 0.00, 0.04, 0.00, 0.00
97, 0.00, 0.00, 0.00, 79572.86, 0.00, 0.00, 0.00, 0.00, 0.04, 0.00, 0.00
98, 0.00, 0.00, 0.00, 187500.00, 0.00, 0.00, 0.00, 0.00, 0.04, 0.00, 0.00
99, 0.00, 0.00, 0.00, 69702.77, 0.00, 0.00, 0.00, 0.00, 0.04, 0.00, 0.00
100, 0.00, 0.00, 0.00, -75412.08, 0.00, 0.00, 0.00, 0.00, 0.04, 0.00, 0.00
101, 0.00, 0.00, 0.00, 38757.19, 0.00, 0.00, 0.00, 0.00, 0.04, 0.00, 0.00
102, 0.00, 0.00, 0.00, 187500.00, 0.00, 0.00, 0.00, 0.00, 0.04, 0.00, 0.00
103, 0.00, 0.00, 0.00, 109466.57, 0.00, 0.00, 0.00, 0.00, 0.04, 0.00, 0.00
104, 0.00, 0.00, 0.00, -66720.42, 0.00, 0.00, 0.00, 0.00, 0.04, 0.00, 0.00
105, 0.00, 0.00, 0.00, 1875.78, 0.00, 0.00, 0.00, 0.00, 0.04, 0.00, 0.00
106, 0.00, 0.00, 0.00, 184461.03, 0.00, 0.00, 0.00, 0.00, 0.04, 0.00, 0.00
107, 0.00, 0.00, 0.00, 143988.34, 0.00, 0.00, 0.00, 0.00, 0.04, 0.00, 0.00
108, 0.00, 0.00, 0.00, -49048.11, 0.00, 0.00, 0.00, 0.00, 0.04, 0.00, 0.00
109, 0.00, 0.00, 0.00, -28164.16, 0.00, 0.00, 0.00, 0.00, 0.04, 0.00, 0.00
110, 0.00, 0.00, 0.00, 166466.38, 0.00, 0.00, 0.00, 0.00, 0.04, 0.00, 0.00
111, 0.00, 0.00, 0.00, 173375.75, 0.00, 0.00, 0.00, 0.00, 0.04, 0.00, 0.00
112, 0.00, 0.00, 0.00, -18168.73, 0.00, 0.00, 0.00, 0.00, 0.04, 0.00, 0.00
113, 0.00, 0.00, 0.00, -51206.66, 0.00, 0.00, 0.00, 0.00, 0.04, 0.00, 0.00
114, 0.00, 0.00, 0.00, 140837.83, 0.00, 0.00, 0.00, 0.00, 0.04, 0.00, 0.00
115, 0.00, 0.00, 0.00, 187500.00, 0.00, 0.00, 0.00, 0.00, 0.04, 0.00, 0.00
116, 0.00, 0.00, 0.00, 15382.65, 0.00, 0.00, 0.00, 0.00, 0.04, 0.00, 0.00
117, 0.00, 0.00, 0.00, -67388.63, 0.00, 0.00, 0.00, 0.00, 0.04, 0.00, 0.00
118, 0.00, 0.00, 0.00, 105031.98, 0.00, 0.00, 0.00, 0.00, 0.04, 0.00, 0.00
119, 0.00, 0.00, 0.00, 187500.00, 0.00, 0.00, 0.00, 0.00, 0.04, 0.00, 0.00
120, 0.00, 0.00, 0.00, 83585.59, 0.00, 0.00, 0.00, 0.00, 0.04, 0.00, 0.00
121, 0.00, 0.00, 0.00, -69347.78, 0.00, 0.00, 0.00, 0.00, 0.04, 0.00, 0.00
122, 0.00, 0.00, 0.00, 56614.84, 0.00, 0.00, 0.00, 0.00, 0.04, 0.00, 0.00
123, 0.00, 0.00, 0.00, 187500.00, 0.00, 0.00, 0.00, 0.00, 0.04, 0.00, 0.00
124, 0.00, 0.00, 0.00, 109553.90, 0.00, 0.00, 0.00, 0.00, 0.04, 0.00, 0.00
125, 0.00, 0.00, 0.00, -66346.05, 0.00, 0.00, 0.00, 0.00, 0.04, 0.00, 0.00
126, 0.00, 0.00, 0.00, 4458.95, 0.00, 0.00, 0.00, 0.00, 0.04, 0.00, 0.00
127, 0.00, 0.00, 0.00, 185620.38, 0.00, 0.00, 0.00, 0.00, 0.04, 0.00, 0.00
128, 0.00, 0.00, 0.00, 142892.44, 0.00, 0.00, 0.00, 0.00, 0.04, 0.00, 0.00
129, 0.00, 0.00, 0.00, -49945.87, 0.00, 0.00, 0.00, 0.00, 0.04, 0.00, 0.00
130, 0.00, 0.00, 0.00, -17648.36, 0.00, 0.00, 0.00, 0.00, 0.04, 0.00, 0.00
131, 0.00, 0.00, 0.00, 174170.89, 0.00, 0.00, 0.00, 0.00, 0.04, 0.00, 0.00
132, 0.00, 0.00, 0.00, 169023.89, 0.00, 0.00, 0.00, 0.00, 0.04, 0.00, 0.00
133, 0.00, 0.00, 0.00, -24862.18, 0.00, 0.00, 0.00, 0.00, 0.04, 0.00, 0.00
134, 0.00, 0.00, 0.00, -49887.01, 0.00, 0.00, 0.00, 0.00, 0.04, 0.00, 0.00
135, 0.00, 0.00, 0.00, 143941.63, 0.00, 0.00, 0.00, 0.00, 0.04, 0.00, 0.00
136, 0.00, 0.00, 0.00, 184823.81, 0.00, 0.00, 0.00, 0.00, 0.04, 0.00, 0.00
137, 0.00, 0.00, 0.00, 2779.08, 0.00, 0.00, 0.00, 0.00, 0.04, 0.00, 0.00
138, 0.00, 0.00, 0.00, -64562.18, 0.00, 0.00, 0.00, 0.00, 0.04, 0.00, 0.00
139, 0.00, 0.00, 0.00, 116152.38, 0.00, 0.00, 0.00, 0.00, 0.04, 0.00, 0.00
140, 0.00, 0.00, 0.00, 187500.00, 0.00, 0.00, 0.00, 0.00, 0.04, 0.00, 0.00
141, 0.00, 0.00, 0.00, 38605.30, 0.00, 0.00, 0.00, 0.00, 0.04, 0.00, 0.00
142, 0.00, 0.00, 0.00, -73471.79, 0.00, 0.00, 0.00, 0.00, 0.04, 0.00, 0.00
143, 0.00, 0.00, 0.00, 80076.89, 0.00, 0.00, 0.00, 0.00, 0.04, 0.00, 0.00
144, 0.00, 0.00, 0.00, 187500.00, 0.00, 0.00, 0.00, 0.00, 0.04, 0.00, 0.00
145, 0.00, 0.00, 0.00, 77948.48, 0.00, 0.00, 0.00, 0.00, 0.04, 0.00, 0.00
146, 0.00, 0.00, 0.00, -73762.66, 0.00, 0.00, 0.00, 0.00, 0.04, 0.00, 0.00
147, 0.00, 0.00, 0.00, 39007.95, 0.00, 0.00, 0.00, 0.00, 0.04, 0.00, 0.00
148, 0.00, 0.00, 0.00, 187500.00, 0.00, 0.00, 0.00, 0.00, 0.04, 0.00, 0.00
149, 0.00, 0.00, 0.00, 122876.88, 0.00, 0.00, 0.00, 0.00, 0.04, 0.00, 0.00
150, 0.00, 0.00, 0.00, -61247.58, 0.00, 0.00, 0.00, 0.00, 0.04, 0.00, 0.00
151, 0.00, 0.00, 0.00, -356.71, 0.00, 0.00, 0.00, 0.00, 0.04, 0.00, 0.00
152, 0.00, 0.00, 0.00, 183591.44, 0.00, 0.00, 0.00, 0.00, 0.04, 0.00, 0.00
153, 0.00, 0.00, 0.00, 153980.31, 0.00, 0.00, 0.00, 0.00, 0.04, 0.00, 0.00
154, 0.00, 0.00, 0.00, -41304.91, 0.00, 0.00, 0.00, 0.00, 0.04, 0.00, 0.00
155, 0.00, 0.00, 0.00, -30278.83, 0.00, 0.00, 0.00, 0.00, 0.04, 0.00, 0.00
156, 0.00, 0.00, 0.00, 164950.42, 0.00, 0.00, 0.00, 0.00, 0.04, 0.00, 0.00
157, 0.00, 0.00, 0.00, 176049.00, 0.00, 0.00, 0.00, 0.00, 0.04, 0.00, 0.00
158, 0.00, 0.00, 0.00, -14122.21, 0.00, 0.00, 0.00, 0.00, 0.04, 0.00, 0.00
159, 0.00, 0.00, 0.00, -54785.55, 0.00, 0.00, 0.00, 0.00, 0.04, 0.00, 0.00
160, 0.00, 0.00, 0.00, 135614.33, 0.00, 0.00, 0.00, 0.00, 0.04, 0.00, 0.00
161, 0.00, 0.00, 0.00, 187500.00, 0.00, 0.00, 0.00, 0.00, 0.04, 0.00, 0.00
162, 0.00, 0.00, 0.00, 24619.42, 0.00, 0.00, 0.00, 0.00, 0.04, 0.00, 0.00
163, 0.00, 0.00, 0.00, -68757.96, 0.00, 0.00, 0.00, 0.00, 0.04, 0.00, 0.00
164, 0.00, 0.00, 0.00, 99993.41, 0.00, 0.00, 0.00, 0.00, 0.04, 0.00, 0.00
165, 0.00, 0.00, 0.00, 187500.00, 0.00, 0.00, 0.00, 0.00, 0.04, 0.00, 0.00
166, 0.00, 0.00, 0.00, 62817.25, 0.00, 0.00, 0.00, 0.00, 0.04, 0.00, 0.00
167, 0.00, 0.00, 0.00, -73660.64, 0.00, 0.00, 0.00, 0.00, 0.04, 0.00, 0.00
168, 0.00, 0.00, 0.00, 58409.29, 0.00, 0.00, 0.00, 0.00, 0.04, 0.00, 0.00
169, 0.00, 0.00, 0.00, 187500.00, 0.00, 0.00, 0.00, 0.00, 0.04, 0.00, 0.00
170, 0.00, 0.00, 0.00, 100858.13, 0.00, 0.00, 0.00, 0.00, 0.04, 0.00, 0.00
171, 0.00, 0.00, 0.00, -68360.70, 0.00, 0.00, 0.00, 0.00, 0.04, 0.00, 0.00
172, 0.00, 0.00, 0.00, 22118.53, 0.00, 0.00, 0.00, 0.00, 0.04, 0.00, 0.00
173, 0.00, 0.00, 0.00, 187500.00, 0.00, 0.00, 0.00, 0.00, 0.04, 0.00, 0.00
174, 0.00, 0.00, 0.00, 140349.19, 0.00, 0.00, 0.00, 0.00, 0.04, 0.00, 0.00
175, 0.00, 0.00, 0.00, -51241.68, 0.00, 0.00, 0.00, 0.00, 0.04, 0.00, 0.00
176, 0.00, 0.00, 0.00, -18430.78, 0.00, 0.00, 0.00, 0.00, 0.04, 0.00, 0.00
177, 0.00, 0.00, 0.00, 173426.69, 0.00, 0.00, 0.00, 0.00, 0.04, 0.00, 0.00
178, 0.00, 0.00, 0.00, 166176.77, 0.00, 0.00, 0.00, 0.00, 0.04, 0.00, 0.00
179, 0.00, 0.00, 0.00, -27944.42, 0.00, 0.00, 0.00, 0.00, 0.04, 0.00, 0.00
180, 0.00, 0.00, 0.00, -44706.10, 0.00, 0.00, 0.00, 0.00, 0.04, 0.00, 0.00
181, 0.00, 0.00, 0.00, 149506.70, 0.00, 0.00, 0.00, 0.00, 0.04, 0.00, 0.00
182, 0.00, 0.00, 0.00, 186890.11, 0.00, 0.00, 0.00, 0.00, 0.04, 0.00, 0.00
183, 0.00, 0.00, 0.00, 8247.64, 0.00, 0.00, 0.00, 0.00, 0.04, 0.00, 0.00
184, 0.00, 0.00, 0.00, -63181.88, 0.00, 0.00, 0.00, 0.00, 0.04, 0.00, 0.00
185, 0.00, 0.00, 0.00, 116340.47, 0.00, 0.00, 0.00, 0.00, 0.04, 0.00, 0.00
186, 0.00, 0.00, 0.00, 187500.00, 0.00, 0.00, 0.00, 0.00, 0.04, 0.00, 0.00
187, 0.00, 0.00, 0.00, 48816.63, 0.00, 0.00, 0.00, 0.00, 0.04, 0.00, 0.00
188, 0.00, 0.00, 0.00, -70437.72, 0.00, 0.00, 0.00, 0.00, 0.04, 0.00, 0.00
189, 0.00, 0.00, 0.00, 82681.38, 0.00, 0.00, 0.00, 0.00, 0.04, 0.00, 0.00
190, 0.00, 0.00, 0.00, 187500.00, 0.00, 0.00, 0.00, 0.00, 0.04, 0.00, 0.00
191, 0.00, 0.00, 0.00, 83424.84, 0.00, 0.00, 0.00, 0.00, 0.04, 0.00, 0.00
192, 0.00, 0.00, 0.00, -70558.91, 0.00, 0.00, 0.00, 0.00, 0.04, 0.00, 0.00
193, 0.00, 0.00, 0.00, 45073.39, 0.00, 0.00, 0.00, 0.00, 0.04, 0.00, 0.00
194, 0.00, 0.00, 0.00, 187500.00, 0.00, 0.00, 0.00, 0.00, 0.04, 0.00, 0.00
195, 0.00, 0.00, 0.00, 121092.80, 0.00, 0.00, 0.00, 0.00, 0.04, 0.00, 0.00
196, 0.00, 0.00, 0.00, -60908.28, 0.00, 0.00, 0.00, 0.00, 0.04, 0.00, 0.00
197, 0.00, 0.00, 0.00, 1063.34, 0.00, 0.00, 0.00, 0.00, 0.04, 0.00, 0.00
198, 0.00, 0.00, 0.00, 183756.05, 0.00, 0.00, 0.00, 0.00, 0.04, 0.00, 0.00
199, 0.00, 0.00, 0.00, 152018.66, 0.00, 0.00, 0.00, 0.00, 0.04, 0.00, 0.00
200, 0.00, 0.00, 0.00, -42060.77, 0.00, 0.00, 0.00, 0.00, 0.04, 0.00, 0.00
201, 0.00, 0.00, 0.00, -29848.12, 0.00, 0.00, 0.00, 0.00, 0.04, 0.00, 0.00
202, 0.00, 0.00, 0.00, 164190.02, 0.00, 0.00, 0.00, 0.00, 0.04, 0.00, 0.00
203, 0.00, 0.00, 0.00, 176056.33, 0.00, 0.00, 0.00, 0.00, 0.04, 0.00, 0.00
204, 0.00, 0.00, 0.00, -13376.89, 0.00, 0.00, 0.00, 0.00, 0.04, 0.00, 0.00
205, 0.00, 0.00, 0.00, -59343.68, 0.00, 0.00, 0.00, 0.00, 0.04, 0.00, 0.00
206, 0.00, 0.00, 0.00, 125247.02, 0.00, 0.00, 0.00, 0.00, 0.04, 0.00, 0.00
207, 0.00, 0.00, 0.00, 187500.00, 0.00, 0.00, 0.00, 0.00, 0.04, 0.00, 0.00
208, 0.00, 0.00, 0.00, 20395.38, 0.00, 0.00, 0.00, 0.00, 0.04, 0.00, 0.00
209, 0.00, 0.00, 0.00, -68015.51, 0.00, 0.00, 0.00, 0.00, 0.04, 0.00, 0.00
210, 0.00, 0.00, 0.00, 99116.59, 0.00, 0.00, 0.00, 0.00, 0.04, 0.00, 0.00
211, 0.00, 0.00, 0.00, 187500.00, 0.00, 0.00, 0.00, 0.00, 0.04, 0.00, 0.00
212, 0.00, 0.00, 0.00, 60783.24, 0.00, 0.00, 0.00, 0.00, 0.04, 0.00, 0.00
213, 0.00, 0.00, 0.00, -72124.14, 0.00, 0.00, 0.00, 0.00, 0.04, 0.00, 0.00
214, 0.00, 0.00, 0.00, 62024.48, 0.00, 0.00, 0.00, 0.00, 0.04, 0.00, 0.00
215, 0.00, 0.00, 0.00, 187500.00, 0.00, 0.00, 0.00, 0.00, 0.04, 0.00, 0.00
216, 0.00, 0.00, 0.00, 95449.34, 0.00, 0.00, 0.00, 0.00, 0.04, 0.00, 0.00
217, 0.00, 0.00, 0.00, -68471.80, 0.00, 0.00, 0.00, 0.00, 0.04, 0.00, 0.00
218, 0.00, 0.00, 0.00, 24737.05, 0.00, 0.00, 0.00, 0.00, 0.04, 0.00, 0.00
219, 0.00, 0.00, 0.00, 187500.00, 0.00, 0.00, 0.00, 0.00, 0.04, 0.00, 0.00
220, 0.00, 0.00, 0.00, 133455.41, 0.00, 0.00, 0.00, 0.00, 0.04, 0.00, 0.00
221, 0.00, 0.00, 0.00, -54136.79, 0.00, 0.00, 0.00, 0.00, 0.04, 0.00, 0.00
222, 0.00, 0.00, 0.00, -22250.63, 0.00, 0.00, 0.00, 0.00, 0.04, 0.00, 0.00
223, 0.00, 0.00, 0.00, 169831.70, 0.00, 0.00, 0.00, 0.00, 0.04, 0.00, 0.00
224, 0.00, 0.00, 0.00, 163219.73, 0.00, 0.00, 0.00, 0.00, 0.04, 0.00, 0.00
225, 0.00, 0.00, 0.00, -30238.56, 0.00, 0.00, 0.00, 0.00, 0.04, 0.00, 0.00
226, 0.00, 0.00, 0.00, -39476.11, 0.00, 0.00, 0.00, 0.00, 0.04, 0.00, 0.00
227, 0.00, 0.00, 0.00, 153864.03, 0.00, 0.00, 0.00, 0.00, 0.04, 0.00, 0.00
228, 0.00, 0.00, 0.00, 181685.52, 0.00, 0.00, 0.00, 0.00, 0.04, 0.00, 0.00
229, 0.00, 0.00, 0.00, -2255.94, 0.00, 0.00, 0.00, 0.00, 0.04, 0.00, 0.00
230, 0.00, 0.00, 0.00, -63839.64, 0.00, 0.00, 0.00, 0.00, 0.04, 0.00, 0.00
231, 0.00, 0.00, 0.00, 111313.29, 0.00, 0.00, 0.00, 0.00, 0.04, 0.00, 0.00
232, 0.00, 0.00, 0.00, 187500.00, 0.00, 0.00, 0.00, 0.00, 0.04, 0.00, 0.00
233, 0.00, 0.00, 0.00, 34516.08, 0.00, 0.00, 0.00, 0.00, 0.04, 0.00, 0.00
234, 0.00, 0.00, 0.00, -70940.50, 0.00, 0.00, 0.00, 0.00, 0.04, 0.00, 0.00
235, 0.00, 0.00, 0.00, 79194.64, 0.00, 0.00, 0.00, 0.00, 0.04, 0.00, 0.00
236, 0.00, 0.00, 0.00, 187500.00, 0.00, 0.00, 0.00, 0.00, 0.04, 0.00, 0.00
237, 0.00, 0.00, 0.00, 76934.12, 0.00, 0.00, 0.00, 0.00, 0.04, 0.00, 0.00
238, 0.00, 0.00, 0.00, -69727.02, 0.00, 0.00, 0.00, 0.00, 0.04, 0.00, 0.00
239, 0.00, 0.00, 0.00, 47512.01, 0.00, 0.00, 0.00, 0.00, 0.04, 0.00, 0.00
240, 0.00, 0.00, 0.00, 187500.00, 0.00, 0.00, 0.00, 0.00, 0.04, 0.00, 0.00
241, 0.00, 0.00, 0.00, 103348.92, 0.00, 0.00, 0.00, 0.00, 0.04, 0.00, 0.00
242, 0.00, 0.00, 0.00, -65349.32, 0.00, 0.00, 0.00, 0.00, 0.04, 0.00, 0.00
243, 0.00, 0.00, 0.00, 12228.33, 0.00, 0.00, 0.00, 0.00, 0.04, 0.00, 0.00
244, 0.00, 0.00, 0.00, 187500.00, 0.00, 0.00, 0.00, 0.00, 0.04, 0.00, 0.00
245, 0.00, 0.00, 0.00, 126684.01, 0.00, 0.00, 0.00, 0.00, 0.04, 0.00, 0.00
246, 0.00, 0.00, 0.00, -56450.25, 0.00, 0.00, 0.00, 0.00, 0.04, 0.00, 0.00
247, 0.00, 0.00, 0.00, -20553.68, 0.00, 0.00, 0.00, 0.00, 0.04, 0.00, 0.00
248, 0.00, 0.00, 0.00, 170174.78, 0.00, 0.00, 0.00, 0.00, 0.04, 0.00, 0.00
249, 0.00, 0.00, 0.00, 158609.83, 0.00, 0.00, 0.00, 0.00, 0.04, 0.00, 0.00
250, 0.00, 0.00, 0.00, -33944.12, 0.00, 0.00, 0.00, 0.00, 0.04, 0.00, 0.00
251, 0.00, 0.00, 0.00, -46038.27, 0.00, 0.00, 0.00, 0.00, 0.04, 0.00, 0.00
252, 0.00, 0.00, 0.00, 143958.69, 0.00, 0.00, 0.00, 0.00, 0.04, 0.00, 0.00
253, 0.00, 0.00, 0.00, 181442.94, 0.00, 0.00, 0.00, 0.00, 0.04, 0.00, 0.00
254, 0.00, 0.00, 0.00, -1566.86, 0.00, 0.00, 0.00, 0.00, 0.04, 0.00, 0.00
255, 0.00, 0.00, 0.00, -62500.44, 0.00, 0.00, 0.00, 0.00, 0.04, 0.00, 0.00
0, 0.00, 0.00, 0.00, 110829.47, 0.00, 0.00, 0.00, 0.00, 0.04, 0.00, 0.00
1, 0.00, 0.00, 0.00, 187500.00, 0.00, 0.00, 0.00, 0.00, 0.04, 0.00, 0.00
2, 0.00, 0.00, 0.00, 34062.79, 0.00, 0.00, 0.00, 0.00, 0.04, 0.00, 0.00
3, 0.00, 0.00, 0.00, -70814.30, 0.00, 0.00, 0.00, 0.00, 0.04, 0.00, 0.00
4, 0.00, 0.00, 0.00, 72764.11, 0.00, 0.00, 0.00, 0.00, 0.04, 0.00, 0.00
5, 0.00, 0.00, 0.00, 187500.00, 0.00, 0.00, 0.00, 0.00, 0.04, 0.00, 0.00
6, 0.00, 0.00, 0.00, 73381.29, 0.00, 0.00, 0.00, 0.00, 0.04, 0.00, 0.00
7, 0.00, 0.00, 0.00, -70575.56, 0.00, 0.00, 0.00, 0.00, 0.04, 0.00, 0.00
8, 0.00, 0.00, 0.00, 32527.24, 0.00, 0.00, 0.00, 0.00, 0.04, 0.00, 0.00
9, 0.00, 0.00, 0.00, 187500.00, 0.00, 0.00, 0.00, 0.00, 0.04, 0.00, 0.00
10, 0.00, 0.00, 0.00, 111973.83, 0.00, 0.00, 0.00, 0.00, 0.04, 0.00, 0.00
11, 0.00, 0.00, 0.00, -61309.40, 0.00, 0.00, 0.00, 0.00, 0.04, 0.00, 0.00
12, 0.00, 0.00, 0.00, -3360.25, 0.00, 0.00, 0.00, 0.00, 0.04, 0.00, 0.00
13, 0.00, 0.00, 0.00, 180321.11, 0.00, 0.00, 0.00, 0.00, 0.04, 0.00, 0.00
14, 0.00, 0.00, 0.00, 146530.16, 0.00, 0.00, 0.00, 0.00, 0.04, 0.00, 0.00
15, 0.00, 0.00, 0.00, -42970.80, 0.00, 0.00, 0.00, 0.00, 0.04, 0.00, 0.00
16, 0.00, 0.00, 0.00, -32874.65, 0.00, 0.00, 0.00, 0.00, 0.04, 0.00, 0.00
17, 0.00, 0.00, 0.00, 158581.52, 0.00, 0.00, 0.00, 0.00, 0.04, 0.00, 0.00
18, 0.00, 0.00, 0.00, 172313.25, 0.00, 0.00, 0.00, 0.00, 0.04, 0.00, 0.00
19, 0.00, 0.00, 0.00, -16181.34, 0.00, 0.00, 0.00, 0.00, 0.04, 0.00, 0.00
20, 0.00, 0.00, 0.00, -54307.74, 0.00, 0.00, 0.00, 0.00, 0.04, 0.00, 0.00
21, 0.00, 0.00, 0.00, 127353.04, 0.00, 0.00, 0.00, 0.00, 0.04, 0.00, 0.00
22, 0.00, 0.00, 0.00, 187500.00, 0.00, 0.00, 0.00, 0.00, 0.04, 0.00, 0.00
23, 0.00, 0.00, 0.00, 18064.25, 0.00, 0.00, 0.00, 0.00, 0.04, 0.00, 0.00
24, 0.00, 0.00, 0.00, -66303.25, 0.00, 0.00, 0.00, 0.00, 0.04, 0.00, 0.00
25, 0.00, 0.00, 0.00, 91618.27, 0.00, 0.00, 0.00, 0.00, 0.04, 0.00, 0.00
26, 0.00, 0.00, 0.00, 187500.00, 0.00, 0.00, 0.00, 0.00, 0.04, 0.00, 0.00
27, 0.00, 0.00, 0.00, 56123.84, 0.00, 0.00, 0.00, 0.00, 0.04, 0.00, 0.00
28, 0.00, 0.00, 0.00, -69827.34, 0.00, 0.00, 0.00, 0.00, 0.04, 0.00, 0.00
29, 0.00, 0.00, 0.00, 53970.16, 0.00, 0.00, 0.00, 0.00, 0.04, 0.00, 0.00
30, 0.00, 0.00, 0.00, 187500.00, 0.00, 0.00, 0.00, 0.00, 0.04, 0.00, 0.00
31, 0.00, 0.00, 0.00, 95839.90, 0.00, 0.00, 0.00, 0.00, 0.04, 0.00, 0.00
32, 0.00, 0.00, 0.00, -64641.49, 0.00, 0.00, 0.00, 0.00, 0.04, 0.00, 0.00
33, 0.00, 0.00, 0.00, 17631.14, 0.00, 0.00, 0.00, 0.00, 0.04, 0.00, 0.00
34, 0.00, 0.00, 0.00, 187500.00, 0.00, 0.00, 0.00, 0.00, 0.04, 0.00, 0.00
35, 0.00, 0.00, 0.00, 130867.80, 0.00, 0.00, 0.00, 0.00, 0.04, 0.00, 0.00
36, 0.00, 0.00, 0.00, -51541.27, 0.00, 0.00, 0.00, 0.00, 0.04, 0.00, 0.00
37, 0.00, 0.00, 0.00, -14948.06, 0.00, 0.00, 0.00, 0.00, 0.04, 0.00, 0.00
38, 0.00, 0.00, 0.00, 172733.11, 0.00, 0.00, 0.00, 0.00, 0.04, 0.00, 0.00
39, 0.00, 0.00, 0.00, 159845.20, 0.00, 0.00, 0.00, 0.00, 0.04, 0.00, 0.00
40, 0.00, 0.00, 0.00, -30359.35, 0.00, 0.00, 0.00, 0.00, 0.04, 0.00, 0.00
41, 0.00, 0.00, 0.00, -40802.04, 0.00, 0.00, 0.00, 0.00, 0.04, 0.00, 0.00
42, 0.00, 0.00, 0.00, 147841.08, 0.00, 0.00, 0.00, 0.00, 0.04, 0.00, 0.00
43, 0.00, 0.00, 0.00, 181193.84, 0.00, 0.00, 0.00, 0.00, 0.04, 0.00, 0.00
44, 0.00, 0.00, 0.00, -284.60, 0.00, 0.00, 0.00, 0.00, 0.04, 0.00, 0.00
45, 0.00, 0.00, 0.00, -57824.70, 0.00, 0.00, 0.00, 0.00, 0.04, 0.00, 0.00
46, 0.00, 0.00, 0.00, 116075.80, 0.00, 0.00, 0.00, 0.00, 0.04, 0.00, 0.00
47, 0.00, 0.00, 0.00, 187500.00, 0.00, 0.00, 0.00, 0.00, 0.04, 0.00, 0.00
48, 0.00, 0.00, 0.00, 34758.82, 0.00, 0.00, 0.00, 0.00, 0.04, 0.00, 0.00
49, 0.00, 0.00, 0.00, -66822.59, 0.00, 0.00, 0.00, 0.00, 0.04, 0.00, 0.00
50, 0.00, 0.00, 0.00, 79211.52, 0.00, 0.00, 0.00, 0.00, 0.04, 0.00, 0.00
51, 0.00, 0.00, 0.00, 187500.00, 0.00, 0.00, 0.00, 0.00, 0.04, 0.00, 0.00
52, 0.00, 0.00, 0.00, 73234.91, 0.00, 0.00, 0.00, 0.00, 0.04, 0.00, 0.00
53, 0.00, 0.00, 0.00, -67211.78, 0.00, 0.00, 0.00, 0.00, 0.04, 0.00, 0.00
54, 0.00, 0.00, 0.00, 41458.37, 0.00, 0.00, 0.00, 0.00, 0.04, 0.00, 0.00
55, 0.00, 0.00, 0.00, 187500.00, 0.00, 0.00, 0.00, 0.00, 0.04, 0.00, 0.00
56, 0.00, 0.00, 0.00, 110167.21, 0.00, 0.00, 0.00, 0.00, 0.04, 0.00, 0.00
57, 0.00, 0.00, 0.00, -59321.13, 0.00, 0.00, 0.00, 0.00, 0.04, 0.00, 0.00
58, 0.00, 0.00, 0.00, 6551.25, 0.00, 0.00, 0.00, 0.00, 0.04, 0.00, 0.00
59, 0.00, 0.00, 0.00, 184409.44, 0.00, 0.00, 0.00, 0.00, 0.04, 0.00, 0.00
60, 0.00, 0.00, 0.00, 150274.14, 0.00, 0.00, 0.00, 0.00, 0.04, 0.00, 0.00
61, 0.00, 0.00, 0.00, -37785.15, 0.00, 0.00, 0.00, 0.00, 0.04, 0.00, 0.00
62, 0.00, 0.00, 0.00, -25123.56, 0.00, 0.00, 0.00, 0.00, 0.04, 0.00, 0.00
63, 0.00, 0.00, 0.00, 164127.84, 0.00, 0.00, 0.00, 0.00, 0.04, 0.00, 0.00
64, 0.00, 0.00, 0.00, 181051.42, 0.00, 0.00, 0.00, 0.00, 0.04, 0.00, 0.00
65, 0.00, 0.00, 0.00, -35.90, 0.00, 0.00, 0.00, 0.00, 0.04, 0.00, 0.00
66, 0.00, 0.00, 0.00, -55708.88, 0.00, 0.00, 0.00, 0.00, 0.04, 0.00, 0.00
67, 0.00, 0.00, 0.00, 119397.83, 0.00, 0.00, 0.00, 0.00, 0.04, 0.00, 0.00
68, 0.00, 0.00, 0.00, 187500.00, 0.00, 0.00, 0.00, 0.00, 0.04, 0.00, 0.00
69, 0.00, 0.00, 0.00, 33111.89, 0.00, 0.00, 0.00, 0.00, 0.04, 0.00, 0.00
70, 0.00, 0.00, 0.00, -60981.35, 0.00, 0.00, 0.00, 0.00, 0.04, 0.00, 0.00
71, 0.00, 0.00, 0.00, 100315.72, 0.00, 0.00, 0.00, 0.00, 0.04, 0.00, 0.00
72, 0.00, 0.00, 0.00, 187500.00, 0.00, 0.00, 0.00, 0.00, 0.04, 0.00, 0.00
73, 0.00, 0.00, 0.00, 73311.28, 0.00, 0.00, 0.00, 0.00, 0.04, 0.00, 0.00
74, 0.00, 0.00, 0.00, -63795.03, 0.00, 0.00, 0.00, 0.00, 0.04, 0.00, 0.00
75, 0.00, 0.00, 0.00, 64816.73, 0.00, 0.00, 0.00, 0.00, 0.04, 0.00, 0.00
76, 0.00, 0.00, 0.00, 187500.00, 0.00, 0.00, 0.00, 0.00, 0.04, 0.00, 0.00
77, 0.00, 0.00, 0.00, 105098.37, 0.00, 0.00, 0.00, 0.00, 0.04, 0.00, 0.00
78, 0.00, 0.00, 0.00, -60442.20, 0.00, 0.00, 0.00, 0.00, 0.04, 0.00, 0.00
79, 0.00, 0.00, 0.00, 19772.78, 0.00, 0.00, 0.00, 0.00, 0.04, 0.00, 0.00
80, 0.00, 0.00, 0.00, 187500.00, 0.00, 0.00, 0.00, 0.00, 0.04, 0.00, 0.00
81, 0.00, 0.00, 0.00, 139571.91, 0.00, 0.00, 0.00, 0.00, 0.04, 0.00, 0.00
82, 0.00, 0.00, 0.00, -45661.08, 0.00, 0.00, 0.00, 0.00, 0.04, 0.00, 0.00
83, 0.00, 0.00, 0.00, -11155.22, 0.00, 0.00, 0.00, 0.00, 0.04, 0.00, 0.00
84, 0.00, 0.00, 0.00, 174892.22, 0.00, 0.00, 0.00, 0.00, 0.04, 0.00, 0.00
85, 0.00, 0.00, 0.00, 165065.53, 0.00, 0.00, 0.00, 0.00, 0.04, 0.00, 0.00
86, 0.00, 0.00, 0.00, -24291.23, 0.00, 0.00, 0.00, 0.00, 0.04, 0.00, 0.00
87, 0.00, 0.00, 0.00, -37815.29, 0.00, 0.00, 0.00, 0.00, 0.04, 0.00, 0.00
88, 0.00, 0.00, 0.00, 151294.06, 0.00, 0.00, 0.00, 0.00, 0.04, 0.00, 0.00
89, 0.00, 0.00, 0.00, 186350.31, 0.00, 0.00, 0.00, 0.00, 0.04, 0.00, 0.00
90, 0.00, 0.00, 0.00, 10887.67, 0.00, 0.00, 0.00, 0.00, 0.04, 0.00, 0.00
91, 0.00, 0.00, 0.00, -55400.27, 0.00, 0.00, 0.00, 0.00, 0.04, 0.00, 0.00
92, 0.00, 0.00, 0.00, 120474.96, 0.00, 0.00, 0.00, 0.00, 0.04, 0.00, 0.00
93, 0.00, 0.00, 0.00, 187500.00, 0.00, 0.00, 0.00, 0.00, 0.04, 0.00, 0.00
94, 0.00, 0.00, 0.00, 48141.81, 0.00, 0.00, 0.00, 0.00, 0.04, 0.00, 0.00
95, 0.00, 0.00, 0.00, -63883.14, 0.00, 0.00, 0.00, 0.00, 0.04, 0.00, 0.00
96, 0.00, 0.00, 0.00, 86143.60, 0.00, 0.00, 0.00, 0.00, 0.04, 0.00, 0.00
97, 0.00, 0.00, 0.00, 187500.00, 0.00, 0.00, 0.00, 0.00, 0.04, 0.00, 0.00
98, 0.00, 0.00, 0.00, 79975.50, 0.00, 0.00, 0.00, 0.00, 0.04, 0.00, 0.00
99, 0.00, 0.00, 0.00, -65225.20, 0.00, 0.00, 0.00, 0.00, 0.04, 0.00, 0.00
100, 0.00, 0.00, 0.00, 49113.00, 0.00, 0.00, 0.00, 0.00, 0.04, 0.00, 0.00
101, 0.00, 0.00, 0.00, 187500.00, 0.00, 0.00, 0.00, 0.00, 0.04, 0.00, 0.00
102, 0.00, 0.00, 0.00, 113981.02, 0.00, 0.00, 0.00, 0.00, 0.04, 0.00, 0.00
103, 0.00, 0.00, 0.00, -58354.41, 0.00, 0.00, 0.00, 0.00, 0.04, 0.00, 0.00
104, 0.00, 0.00, 0.00, 6037.12, 0.00, 0.00, 0.00, 0.00, 0.04, 0.00, 0.00
105, 0.00, 0.00, 0.00, 184380.19, 0.00, 0.00, 0.00, 0.00, 0.04, 0.00, 0.00
106, 0.00, 0.00, 0.00, 154416.23, 0.00, 0.00, 0.00, 0.00, 0.04, 0.00, 0.00
107, 0.00, 0.00, 0.00, -35203.86, 0.00, 0.00, 0.00, 0.00, 0.04, 0.00, 0.00
108, 0.00, 0.00, 0.00, -22999.81, 0.00, 0.00, 0.00, 0.00, 0.04, 0.00, 0.00
109, 0.00, 0.00, 0.00, 166520.11, 0.00, 0.00, 0.00, 0.00, 0.04, 0.00, 0.00
110, 0.00, 0.00, 0.00, 175171.86, 0.00, 0.00, 0.00, 0.00, 0.04, 0.00, 0.00
111, 0.00, 0.00, 0.00, -10807.49, 0.00, 0.00, 0.00, 0.00, 0.04, 0.00, 0.00
112, 0.00, 0.00, 0.00, -44756.68, 0.00, 0.00, 0.00, 0.00, 0.04, 0.00, 0.00
113, 0.00, 0.00, 0.00, 141884.69, 0.00, 0.00, 0.00, 0.00, 0.04, 0.00, 0.00
114, 0.00, 0.00, 0.00, 187500.00, 0.00, 0.00, 0.00, 0.00, 0.04, 0.00, 0.00
115, 0.00, 0.00, 0.00, 21934.86, 0.00, 0.00, 0.00, 0.00, 0.04, 0.00, 0.00
116, 0.00, 0.00, 0.00, -62080.20, 0.00, 0.00, 0.00, 0.00, 0.04, 0.00, 0.00
117, 0.00, 0.00, 0.00, 101782.60, 0.00, 0.00, 0.00, 0.00, 0.04, 0.00, 0.00
118, 0.00, 0.00, 0.00, 187500.00, 0.00, 0.00, 0.00, 0.00, 0.04, 0.00, 0.00
119, 0.00, 0.00, 0.00, 61066.89, 0.00, 0.00, 0.00, 0.00, 0.04, 0.00, 0.00
120, 0.00, 0.00, 0.00, -67041.24, 0.00, 0.00, 0.00, 0.00, 0.04, 0.00, 0.00
121, 0.00, 0.00, 0.00, 62797.87, 0.00, 0.00, 0.00, 0.00, 0.04, 0.00, 0.00
122, 0.00, 0.00, 0.00, 187500.00, 0.00, 0.00, 0.00, 0.00, 0.04, 0.00, 0.00
123, 0.00, 0.00, 0.00, 100767.00, 0.00, 0.00, 0.00, 0.00, 0.04, 0.00, 0.00
124, 0.00, 0.00, 0.00, -62345.03, 0.00, 0.00, 0.00, 0.00, 0.04, 0.00, 0.00
125, 0.00, 0.00, 0.00, 23012.17, 0.00, 0.00, 0.00, 0.00, 0.04, 0.00, 0.00
126, 0.00, 0.00, 0.00, 187500.00, 0.00, 0.00, 0.00, 0.00, 0.04, 0.00, 0.00
127, 0.00, 0.00, 0.00, 136633.17, 0.00, 0.00, 0.00, 0.00, 0.04, 0.00, 0.00
128, 0.00, 0.00, 0.00, -47849.20, 0.00, 0.00, 0.00, 0.00, 0.04, 0.00, 0.00
129, 0.00, 0.00, 0.00, -5248.77, 0.00, 0.00, 0.00, 0.00, 0.04, 0.00, 0.00
130, 0.00, 0.00, 0.00, 178671.03, 0.00, 0.00, 0.00, 0.00, 0.04, 0.00, 0.00
131, 0.00, 0.00, 0.00, 165469.02, 0.00, 0.00, 0.00, 0.00, 0.04, 0.00, 0.00
132, 0.00, 0.00, 0.00, -24124.01, 0.00, 0.00, 0.00, 0.00, 0.04, 0.00, 0.00
133, 0.00, 0.00, 0.00, -31864.91, 0.00, 0.00, 0.00, 0.00, 0.04, 0.00, 0.00
134, 0.00, 0.00, 0.00, 158472.48, 0.00, 0.00, 0.00, 0.00, 0.04, 0.00, 0.00
135, 0.00, 0.00, 0.00, 185251.44, 0.00, 0.00, 0.00, 0.00, 0.04, 0.00, 0.00
136, 0.00, 0.00, 0.00, 7989.09, 0.00, 0.00, 0.00, 0.00, 0.04, 0.00, 0.00
137, 0.00, 0.00, 0.00, -52555.10, 0.00, 0.00, 0.00, 0.00, 0.04, 0.00, 0.00
138, 0.00, 0.00, 0.00, 128068.07, 0.00, 0.00, 0.00, 0.00, 0.04, 0.00, 0.00
139, 0.00, 0.00, 0.00, 187500.00, 0.00, 0.00, 0.00, 0.00, 0.04, 0.00, 0.00
140, 0.00, 0.00, 0.00, 40781.43, 0.00, 0.00, 0.00, 0.00, 0.04, 0.00, 0.00
141, 0.00, 0.00, 0.00, -64491.64, 0.00, 0.00, 0.00, 0.00, 0.04, 0.00, 0.00
142, 0.00, 0.00, 0.00, 90294.43, 0.00, 0.00, 0.00, 0.00, 0.04, 0.00, 0.00
143, 0.00, 0.00, 0.00, 187500.00, 0.00, 0.00, 0.00, 0.00, 0.04, 0.00, 0.00
144, 0.00, 0.00, 0.00, 80156.80, 0.00, 0.00, 0.00, 0.00, 0.04, 0.00, 0.00
145, 0.00, 0.00, 0.00, -66010.58, 0.00, 0.00, 0.00, 0.00, 0.04, 0.00, 0.00
146, 0.00, 0.00, 0.00, 51469.02, 0.00, 0.00, 0.00, 0.00, 0.04, 0.00, 0.00
147, 0.00, 0.00, 0.00, 187500.00, 0.00, 0.00, 0.00, 0.00, 0.04, 0.00, 0.00
148, 0.00, 0.00, 0.00, 118886.91, 0.00, 0.00, 0.00, 0.00, 0.04, 0.00, 0.00
149, 0.00, 0.00, 0.00, -57554.02, 0.00, 0.00, 0.00, 0.00, 0.04, 0.00, 0.00
150, 0.00, 0.00, 0.00, 12003.42, 0.00, 0.00, 0.00, 0.00, 0.04, 0.00, 0.00
151, 0.00, 0.00, 0.00, 187462.36, 0.00, 0.00, 0.00, 0.00, 0.04, 0.00, 0.00
152, 0.00, 0.00, 0.00, 149510.98, 0.00, 0.00, 0.00, 0.00, 0.04, 0.00, 0.00
153, 0.00, 0.00, 0.00, -40795.04, 0.00, 0.00, 0.00, 0.00, 0.04, 0.00, 0.00
154, 0.00, 0.00, 0.00, -17299.45, 0.00, 0.00, 0.00, 0.00, 0.04, 0.00, 0.00
155, 0.00, 0.00, 0.00, 172034.23, 0.00, 0.00, 0.00, 0.00, 0.04, 0.00, 0.00
156, 0.00, 0.00, 0.00, 173080.08, 0.00, 0.00, 0.00, 0.00, 0.04, 0.00, 0.00
157, 0.00, 0.00, 0.00, -15613.88, 0.00, 0.00, 0.00, 0.00, 0.04, 0.00, 0.00
158, 0.00, 0.00, 0.00, -43537.11, 0.00, 0.00, 0.00, 0.00, 0.04, 0.00, 0.00
159, 0.00, 0.00, 0.00, 146840.41, 0.00, 0.00, 0.00, 0.00, 0.04, 0.00, 0.00
160, 0.00, 0.00, 0.00, 187500.00, 0.00, 0.00, 0.00, 0.00, 0.04, 0.00, 0.00
161, 0.00, 0.00, 0.00, 16734.93, 0.00, 0.00, 0.00, 0.00, 0.04, 0.00, 0.00
162, 0.00, 0.00, 0.00, -62527.26, 0.00, 0.00, 0.00, 0.00, 0.04, 0.00, 0.00
163, 0.00, 0.00, 0.00, 108981.80, 0.00, 0.00, 0.00, 0.00, 0.04, 0.00, 0.00
164, 0.00, 0.00, 0.00, 187500.00, 0.00, 0.00, 0.00, 0.00, 0.04, 0.00, 0.00
165, 0.00, 0.00, 0.00, 61161.32, 0.00, 0.00, 0.00, 0.00, 0.04, 0.00, 0.00
166, 0.00, 0.00, 0.00, -67871.43, 0.00, 0.00, 0.00, 0.00, 0.04, 0.00, 0.00
167, 0.00, 0.00, 0.00, 73228.31, 0.00, 0.00, 0.00, 0.00, 0.04, 0.00, 0.00
168, 0.00, 0.00, 0.00, 187500.00, 0.00, 0.00, 0.00, 0.00, 0.04, 0.00, 0.00
169, 0.00, 0.00, 0.00, 98521.14, 0.00, 0.00, 0.00, 0.00, 0.04, 0.00, 0.00
170, 0.00, 0.00, 0.00, -64862.21, 0.00, 0.00, 0.00, 0.00, 0.04, 0.00, 0.00
171, 0.00, 0.00, 0.00, 36085.82, 0.00, 0.00, 0.00, 0.00, 0.04, 0.00, 0.00
172, 0.00, 0.00, 0.00, 187500.00, 0.00, 0.00, 0.00, 0.00, 0.04, 0.00, 0.00
173, 0.00, 0.00, 0.00, 130790.38, 0.00, 0.00, 0.00, 0.00, 0.04, 0.00, 0.00
174, 0.00, 0.00, 0.00, -54025.98, 0.00, 0.00, 0.00, 0.00, 0.04, 0.00, 0.00
175, 0.00, 0.00, 0.00, -1502.10, 0.00, 0.00, 0.00, 0.00, 0.04, 0.00, 0.00
176, 0.00, 0.00, 0.00, 181971.88, 0.00, 0.00, 0.00, 0.00, 0.04, 0.00, 0.00
177, 0.00, 0.00, 0.00, 163511.63, 0.00, 0.00, 0.00, 0.00, 0.04, 0.00, 0.00
178, 0.00, 0.00, 0.00, -29095.51, 0.00, 0.00, 0.00, 0.00, 0.04, 0.00, 0.00
179, 0.00, 0.00, 0.00, -33101.99, 0.00, 0.00, 0.00, 0.00, 0.04, 0.00, 0.00
180, 0.00, 0.00, 0.00, 160287.22, 0.00, 0.00, 0.00, 0.00, 0.04, 0.00, 0.00
181, 0.00, 0.00, 0.00, 183269.44, 0.00, 0.00, 0.00, 0.00, 0.04, 0.00, 0.00
182, 0.00, 0.00, 0.00, 1434.45, 0.00, 0.00, 0.00, 0.00, 0.04, 0.00, 0.00
183, 0.00, 0.00, 0.00, -56336.07, 0.00, 0.00, 0.00, 0.00, 0.04, 0.00, 0.00
184, 0.00, 0.00, 0.00, 127738.63, 0.00, 0.00, 0.00, 0.00, 0.04, 0.00, 0.00
185, 0.00, 0.00, 0.00, 187500.00, 0.00, 0.00, 0.00, 0.00, 0.04, 0.00, 0.00
186, 0.00, 0.00, 0.00, 36853.20, 0.00, 0.00, 0.00, 0.00, 0.04, 0.00, 0.00
187, 0.00, 0.00, 0.00, -66678.73, 0.00, 0.00, 0.00, 0.00, 0.04, 0.00, 0.00
188, 0.00, 0.00, 0.00, 95566.49, 0.00, 0.00, 0.00, 0.00, 0.04, 0.00, 0.00
189, 0.00, 0.00, 0.00, 187500.00, 0.00, 0.00, 0.00, 0.00, 0.04, 0.00, 0.00
190, 0.00, 0.00, 0.00, 80033.80, 0.00, 0.00, 0.00, 0.00, 0.04, 0.00, 0.00
191, 0.00, 0.00, 0.00, -68610.84, 0.00, 0.00, 0.00, 0.00, 0.04, 0.00, 0.00
192, 0.00, 0.00, 0.00, 54887.12, 0.00, 0.00, 0.00, 0.00, 0.04, 0.00, 0.00
193, 0.00, 0.00, 0.00, 187500.00, 0.00, 0.00, 0.00, 0.00, 0.04, 0.00, 0.00
194, 0.00, 0.00, 0.00, 112923.20, 0.00, 0.00, 0.00, 0.00, 0.04, 0.00, 0.00
195, 0.00, 0.00, 0.00, -62529.07, 0.00, 0.00, 0.00, 0.00, 0.04, 0.00, 0.00
196, 0.00, 0.00, 0.00, 15603.39, 0.00, 0.00, 0.00, 0.00, 0.04, 0.00, 0.00
197, 0.00, 0.00, 0.00, 187500.00, 0.00, 0.00, 0.00, 0.00, 0.04, 0.00, 0.00
198, 0.00, 0.00, 0.00, 147808.89, 0.00, 0.00, 0.00, 0.00, 0.04, 0.00, 0.00
199, 0.00, 0.00, 0.00, -44386.29, 0.00, 0.00, 0.00, 0.00, 0.04, 0.00, 0.00
200, 0.00, 0.00, 0.00, -20329.51, 0.00, 0.00, 0.00, 0.00, 0.04, 0.00, 0.00
201, 0.00, 0.00, 0.00, 171339.53, 0.00, 0.00, 0.00, 0.00, 0.04, 0.00, 0.00
202, 0.00, 0.00, 0.00, 170136.20, 0.00, 0.00, 0.00, 0.00, 0.04, 0.00, 0.00
203, 0.00, 0.00, 0.00, -21598.09, 0.00, 0.00, 0.00, 0.00, 0.04, 0.00, 0.00
204, 0.00, 0.00, 0.00, -49643.54, 0.00, 0.00, 0.00, 0.00, 0.04, 0.00, 0.00
205, 0.00, 0.00, 0.00, 141153.75, 0.00, 0.00, 0.00, 0.00, 0.04, 0.00, 0.00
206, 0.00, 0.00, 0.00, 187500.00, 0.00, 0.00, 0.00, 0.00, 0.04, 0.00, 0.00
207, 0.00, 0.00, 0.00, 12184.29, 0.00, 0.00, 0.00, 0.00, 0.04, 0.00, 0.00
208, 0.00, 0.00, 0.00, -63500.63, 0.00, 0.00, 0.00, 0.00, 0.04, 0.00, 0.00
209, 0.00, 0.00, 0.00, 112486.02, 0.00, 0.00, 0.00, 0.00, 0.04, 0.00, 0.00
210, 0.00, 0.00, 0.00, 187500.00, 0.00, 0.00, 0.00, 0.00, 0.04, 0.00, 0.00
211, 0.00, 0.00, 0.00, 48403.84, 0.00, 0.00, 0.00, 0.00, 0.04, 0.00, 0.00
212, 0.00, 0.00, 0.00, -71914.26, 0.00, 0.00, 0.00, 0.00, 0.04, 0.00, 0.00
213, 0.00, 0.00, 0.00, 71933.30, 0.00, 0.00, 0.00, 0.00, 0.04, 0.00, 0.00
214, 0.00, 0.00, 0.00, 187500.00, 0.00, 0.00, 0.00, 0.00, 0.04, 0.00, 0.00
215, 0.00, 0.00, 0.00, 91039.84, 0.00, 0.00, 0.00, 0.00, 0.04, 0.00, 0.00
216, 0.00, 0.00, 0.00, -69116.73, 0.00, 0.00, 0.00, 0.00, 0.04, 0.00, 0.00
217, 0.00, 0.00, 0.00, 32078.89, 0.00, 0.00, 0.00, 0.00, 0.04, 0.00, 0.00
218, 0.00, 0.00, 0.00, 187500.00, 0.00, 0.00, 0.00, 0.00, 0.04, 0.00, 0.00
219, 0.00, 0.00, 0.00, 126515.38, 0.00, 0.00, 0.00, 0.00, 0.04, 0.00, 0.00
220, 0.00, 0.00, 0.00, -57743.85, 0.00, 0.00, 0.00, 0.00, 0.04, 0.00, 0.00
221, 0.00, 0.00, 0.00, -6236.16, 0.00, 0.00, 0.00, 0.00, 0.04, 0.00, 0.00
222, 0.00, 0.00, 0.00, 180024.39, 0.00, 0.00, 0.00, 0.00, 0.04, 0.00, 0.00
223, 0.00, 0.00, 0.00, 158220.14, 0.00, 0.00, 0.00, 0.00, 0.04, 0.00, 0.00
224, 0.00, 0.00, 0.00, -35677.52, 0.00, 0.00, 0.00, 0.00, 0.04, 0.00, 0.00
225, 0.00, 0.00, 0.00, -36859.41, 0.00, 0.00, 0.00, 0.00, 0.04, 0.00, 0.00
226, 0.00, 0.00, 0.00, 157231.52, 0.00, 0.00, 0.00, 0.00, 0.04, 0.00, 0.00
227, 0.00, 0.00, 0.00, 180284.34, 0.00, 0.00, 0.00, 0.00, 0.04, 0.00, 0.00
228, 0.00, 0.00, 0.00, -5225.59, 0.00, 0.00, 0.00, 0.00, 0.04, 0.00, 0.00
229, 0.00, 0.00, 0.00, -57538.55, 0.00, 0.00, 0.00, 0.00, 0.04, 0.00, 0.00
230, 0.00, 0.00, 0.00, 127102.68, 0.00, 0.00, 0.00, 0.00, 0.04, 0.00, 0.00
231, 0.00, 0.00, 0.00, 187500.00, 0.00, 0.00, 0.00, 0.00, 0.04, 0.00, 0.00
232, 0.00, 0.00, 0.00, 29813.45, 0.00, 0.00, 0.00, 0.00, 0.04, 0.00, 0.00
233, 0.00, 0.00, 0.00, -69375.66, 0.00, 0.00, 0.00, 0.00, 0.04, 0.00, 0.00
234, 0.00, 0.00, 0.00, 90310.01, 0.00, 0.00, 0.00, 0.00, 0.04, 0.00, 0.00
235, 0.00, 0.00, 0.00, 187500.00, 0.00, 0.00, 0.00, 0.00, 0.04, 0.00, 0.00
236, 0.00, 0.00, 0.00, 75386.24, 0.00, 0.00, 0.00, 0.00, 0.04, 0.00, 0.00
237, 0.00, 0.00, 0.00, -70156.89, 0.00, 0.00, 0.00, 0.00, 0.04, 0.00, 0.00
238, 0.00, 0.00, 0.00, 53176.47, 0.00, 0.00, 0.00, 0.00, 0.04, 0.00, 0.00
239, 0.00, 0.00, 0.00, 187500.00, 0.00, 0.00, 0.00, 0.00, 0.04, 0.00, 0.00
240, 0.00, 0.00, 0.00, 109518.70, 0.00, 0.00, 0.00, 0.00, 0.04, 0.00, 0.00
241, 0.00, 0.00, 0.00, -63957.64, 0.00, 0.00, 0.00, 0.00, 0.04, 0.00, 0.00
242, 0.00, 0.00, 0.00, 14009.47, 0.00, 0.00, 0.00, 0.00, 0.04, 0.00, 0.00
243, 0.00, 0.00, 0.00, 187500.00, 0.00, 0.00, 0.00, 0.00, 0.04, 0.00, 0.00
244, 0.00, 0.00, 0.00, 150846.28, 0.00, 0.00, 0.00, 0.00, 0.04, 0.00, 0.00
245, 0.00, 0.00, 0.00, -41781.96, 0.00, 0.00, 0.00, 0.00, 0.04, 0.00, 0.00
246, 0.00, 0.00, 0.00, -19813.99, 0.00, 0.00, 0.00, 0.00, 0.04, 0.00, 0.00
247, 0.00, 0.00, 0.00, 171435.34, 0.00, 0.00, 0.00, 0.00, 0.04, 0.00, 0.00
248, 0.00, 0.00, 0.00, 172257.78, 0.00, 0.00, 0.00, 0.00, 0.04, 0.00, 0.00
249, 0.00, 0.00, 0.00, -18247.09, 0.00, 0.00, 0.00, 0.00, 0.04, 0.00, 0.00
250, 0.00, 0.00, 0.00, -45243.42, 0.00, 0.00, 0.00, 0.00, 0.04, 0.00, 0.00
251, 0.00, 0.00, 0.00, 146677.58, 0.00, 0.00, 0.00, 0.00, 0.04, 0.00, 0.00
252, 0.00, 0.00, 0.00, 187500.00, 0.00, 0.00, 0.00, 0.00, 0.04, 0.00, 0.00
253, 0.00, 0.00, 0.00, 16627.66, 0.00, 0.00, 0.00, 0.00, 0.04, 0.00, 0.00
254, 0.00, 0.00, 0.00, -63801.40, 0.00, 0.00, 0.00, 0.00, 0.04, 0.00, 0.00
255, 0.00, 0.00, 0.00, 109334.13, 0.00, 0.00, 0.00, 0.00, 0.04, 0.00, 0.00
0, 0.00, 0.00, 0.00, 187500.00, 0.00, 0.00, 0.00, 0.00, 0.04, 0.00, 0.00
1, 0.00, 0.00, 0.00, 54390.69, 0.00, 0.00, 0.00, 0.00, 0.04, 0.00, 0.00
2, 0.00, 0.00, 0.00, -69595.57, 0.00, 0.00, 0.00, 0.00, 0.04, 0.00, 0.00
3, 0.00, 0.00, 0.00, 75327.70, 0.00, 0.00, 0.00, 0.00, 0.04, 0.00, 0.00
4, 0.00, 0.00, 0.00, 187500.00, 0.00, 0.00, 0.00, 0.00, 0.04, 0.00, 0.00
5, 0.00, 0.00, 0.00, 85311.42, 0.00, 0.00, 0.00, 0.00, 0.04, 0.00, 0.00
6, 0.00, 0.00, 0.00, -69638.55, 0.00, 0.00, 0.00, 0.00, 0.04, 0.00, 0.00
7, 0.00, 0.00, 0.00, 33875.72, 0.00, 0.00, 0.00, 0.00, 0.04, 0.00, 0.00
8, 0.00, 0.00, 0.00, 187500.00, 0.00, 0.00, 0.00, 0.00, 0.04, 0.00, 0.00
9, 0.00, 0.00, 0.00, 124320.27, 0.00, 0.00, 0.00, 0.00, 0.04, 0.00, 0.00
10, 0.00, 0.00, 0.00, -57815.22, 0.00, 0.00, 0.00, 0.00, 0.04, 0.00, 0.00
11, 0.00, 0.00, 0.00, 238.96, 0.00, 0.00, 0.00, 0.00, 0.04, 0.00, 0.00
12, 0.00, 0.00, 0.00, 182958.66, 0.00, 0.00, 0.00, 0.00, 0.04, 0.00, 0.00
13, 0.00, 0.00, 0.00, 159473.81, 0.00, 0.00, 0.00, 0.00, 0.04, 0.00, 0.00
14, 0.00, 0.00, 0.00, -33708.02, 0.00, 0.00, 0.00, 0.00, 0.04, 0.00, 0.00
15, 0.00, 0.00, 0.00, -30087.50, 0.00, 0.00, 0.00, 0.00, 0.04, 0.00, 0.00
16, 0.00, 0.00, 0.00, 163160.33, 0.00, 0.00, 0.00, 0.00, 0.04, 0.00, 0.00
17, 0.00, 0.00, 0.00, 181098.59, 0.00, 0.00, 0.00, 0.00, 0.04, 0.00, 0.00
18, 0.00, 0.00, 0.00, -3077.19, 0.00, 0.00, 0.00, 0.00, 0.04, 0.00, 0.00
19, 0.00, 0.00, 0.00, -63514.74, 0.00, 0.00, 0.00, 0.00, 0.04, 0.00, 0.00
20, 0.00, 0.00, 0.00, 111792.47, 0.00, 0.00, 0.00, 0.00, 0.04, 0.00, 0.00
21, 0.00, 0.00, 0.00, 187500.00, 0.00, 0.00, 0.00, 0.00, 0.04, 0.00, 0.00
22, 0.00, 0.00, 0.00, 32861.54, 0.00, 0.00, 0.00, 0.00, 0.04, 0.00, 0.00
23, 0.00, 0.00, 0.00, -68569.88, 0.00, 0.00, 0.00, 0.00, 0.04, 0.00, 0.00
24, 0.00, 0.00, 0.00, 89498.95, 0.00, 0.00, 0.00, 0.00, 0.04, 0.00, 0.00
25, 0.00, 0.00, 0.00, 187500.00, 0.00, 0.00, 0.00, 0.00, 0.04, 0.00, 0.00
26, 0.00, 0.00, 0.00, 70500.35, 0.00, 0.00, 0.00, 0.00, 0.04, 0.00, 0.00
27, 0.00, 0.00, 0.00, -69895.96, 0.00, 0.00, 0.00, 0.00, 0.04, 0.00, 0.00
28, 0.00, 0.00, 0.00, 57416.51, 0.00, 0.00, 0.00, 0.00, 0.04, 0.00, 0.00
29, 0.00, 0.00, 0.00, 187500.00, 0.00, 0.00, 0.00, 0.00, 0.04, 0.00, 0.00
30, 0.00, 0.00, 0.00, 107540.05, 0.00, 0.00, 0.00, 0.00, 0.04, 0.00, 0.00
31, 0.00, 0.00, 0.00, -63748.16, 0.00, 0.00, 0.00, 0.00, 0.04, 0.00, 0.00
32, 0.00, 0.00, 0.00, 21162.85, 0.00, 0.00, 0.00, 0.00, 0.04, 0.00, 0.00
33, 0.00, 0.00, 0.00, 187500.00, 0.00, 0.00, 0.00, 0.00, 0.04, 0.00, 0.00
34, 0.00, 0.00, 0.00, 141491.00, 0.00, 0.00, 0.00, 0.00, 0.04, 0.00, 0.00
35, 0.00, 0.00, 0.00, -48373.11, 0.00, 0.00, 0.00, 0.00, 0.04, 0.00, 0.00
36, 0.00, 0.00, 0.00, -15158.55, 0.00, 0.00, 0.00, 0.00, 0.04, 0.00, 0.00
37, 0.00, 0.00, 0.00, 174471.97, 0.00, 0.00, 0.00, 0.00, 0.04, 0.00, 0.00
38, 0.00, 0.00, 0.00, 168779.09, 0.00, 0.00, 0.00, 0.00, 0.04, 0.00, 0.00
39, 0.00, 0.00, 0.00, -22979.09, 0.00, 0.00, 0.00, 0.00, 0.04, 0.00, 0.00
40, 0.00, 0.00, 0.00, -43152.01, 0.00, 0.00, 0.00, 0.00, 0.04, 0.00, 0.00
41, 0.00, 0.00, 0.00, 149300.50, 0.00, 0.00, 0.00, 0.00, 0.04, 0.00, 0.00
42, 0.00, 0.00, 0.00, 187500.00, 0.00, 0.00, 0.00, 0.00, 0.04, 0.00, 0.00
43, 0.00, 0.00, 0.00, 14286.97, 0.00, 0.00, 0.00, 0.00, 0.04, 0.00, 0.00
44, 0.00, 0.00, 0.00, -64266.58, 0.00, 0.00, 0.00, 0.00, 0.04, 0.00, 0.00
45, 0.00, 0.00, 0.00, 108820.83, 0.00, 0.00, 0.00, 0.00, 0.04, 0.00, 0.00
46, 0.00, 0.00, 0.00, 187500.00, 0.00, 0.00, 0.00, 0.00, 0.04, 0.00, 0.00
47, 0.00, 0.00, 0.00, 49984.69, 0.00, 0.00, 0.00, 0.00, 0.04, 0.00, 0.00
48, 0.00, 0.00, 0.00, -71137.20, 0.00, 0.00, 0.00, 0.00, 0.04, 0.00, 0.00
49, 0.00, 0.00, 0.00, 72319.58, 0.00, 0.00, 0.00, 0.00, 0.04, 0.00, 0.00
50, 0.00, 0.00, 0.00, 187500.00, 0.00, 0.00, 0.00, 0.00, 0.04, 0.00, 0.00
51, 0.00, 0.00, 0.00, 89192.13, 0.00, 0.00, 0.00, 0.00, 0.04, 0.00, 0.00
52, 0.00, 0.00, 0.00, -68101.67, 0.00, 0.00, 0.00, 0.00, 0.04, 0.00, 0.00
53, 0.00, 0.00, 0.00, 42057.40, 0.00, 0.00, 0.00, 0.00, 0.04, 0.00, 0.00
54, 0.00, 0.00, 0.00, 187500.00, 0.00, 0.00, 0.00, 0.00, 0.04, 0.00, 0.00
55, 0.00, 0.00, 0.00, 122454.56, 0.00, 0.00, 0.00, 0.00, 0.04, 0.00, 0.00
56, 0.00, 0.00, 0.00, -59012.83, 0.00, 0.00, 0.00, 0.00, 0.04, 0.00, 0.00
57, 0.00, 0.00, 0.00, 3417.94, 0.00, 0.00, 0.00, 0.00, 0.04, 0.00, 0.00
58, 0.00, 0.00, 0.00, 184585.34, 0.00, 0.00, 0.00, 0.00, 0.04, 0.00, 0.00
59, 0.00, 0.00, 0.00, 153455.09, 0.00, 0.00, 0.00, 0.00, 0.04, 0.00, 0.00
60, 0.00, 0.00, 0.00, -39790.44, 0.00, 0.00, 0.00, 0.00, 0.04, 0.00, 0.00
61, 0.00, 0.00, 0.00, -29563.76, 0.00, 0.00, 0.00, 0.00, 0.04, 0.00, 0.00
62, 0.00, 0.00, 0.00, 164041.25, 0.00, 0.00, 0.00, 0.00, 0.04, 0.00, 0.00
63, 0.00, 0.00, 0.00, 176584.11, 0.00, 0.00, 0.00, 0.00, 0.04, 0.00, 0.00
64, 0.00, 0.00, 0.00, -11675.17, 0.00, 0.00, 0.00, 0.00, 0.04, 0.00, 0.00
65, 0.00, 0.00, 0.00, -52858.68, 0.00, 0.00, 0.00, 0.00, 0.04, 0.00, 0.00
66, 0.00, 0.00, 0.00, 135599.20, 0.00, 0.00, 0.00, 0.00, 0.04, 0.00, 0.00
67, 0.00, 0.00, 0.00, 187500.00, 0.00, 0.00, 0.00, 0.00, 0.04, 0.00, 0.00
68, 0.00, 0.00, 0.00, 27534.96, 0.00, 0.00, 0.00, 0.00, 0.04, 0.00, 0.00
69, 0.00, 0.00, 0.00, -65667.81, 0.00, 0.00, 0.00, 0.00, 0.04, 0.00, 0.00
70, 0.00, 0.00, 0.00, 103085.30, 0.00, 0.00, 0.00, 0.00, 0.04, 0.00, 0.00
71, 0.00, 0.00, 0.00, 187500.00, 0.00, 0.00, 0.00, 0.00, 0.04, 0.00, 0.00
72, 0.00, 0.00, 0.00, 62458.68, 0.00, 0.00, 0.00, 0.00, 0.04, 0.00, 0.00
73, 0.00, 0.00, 0.00, -71238.56, 0.00, 0.00, 0.00, 0.00, 0.04, 0.00, 0.00
74, 0.00, 0.00, 0.00, 63209.30, 0.00, 0.00, 0.00, 0.00, 0.04, 0.00, 0.00
75, 0.00, 0.00, 0.00, 187500.00, 0.00, 0.00, 0.00, 0.00, 0.04, 0.00, 0.00
76, 0.00, 0.00, 0.00, 98494.30, 0.00, 0.00, 0.00, 0.00, 0.04, 0.00, 0.00
77, 0.00, 0.00, 0.00, -67464.54, 0.00, 0.00, 0.00, 0.00, 0.04, 0.00, 0.00
78, 0.00, 0.00, 0.00, 23195.63, 0.00, 0.00, 0.00, 0.00, 0.04, 0.00, 0.00
79, 0.00, 0.00, 0.00, 187500.00, 0.00, 0.00, 0.00, 0.00, 0.04, 0.00, 0.00
80, 0.00, 0.00, 0.00, 135075.63, 0.00, 0.00, 0.00, 0.00, 0.04, 0.00, 0.00
81, 0.00, 0.00, 0.00, -53025.42, 0.00, 0.00, 0.00, 0.00, 0.04, 0.00, 0.00
82, 0.00, 0.00, 0.00, -10951.75, 0.00, 0.00, 0.00, 0.00, 0.04, 0.00, 0.00
83, 0.00, 0.00, 0.00, 177358.72, 0.00, 0.00, 0.00, 0.00, 0.04, 0.00, 0.00
84, 0.00, 0.00, 0.00, 163188.22, 0.00, 0.00, 0.00, 0.00, 0.04, 0.00, 0.00
85, 0.00, 0.00, 0.00, -30341.75, 0.00, 0.00, 0.00, 0.00, 0.04, 0.00, 0.00
86, 0.00, 0.00, 0.00, -37932.03, 0.00, 0.00, 0.00, 0.00, 0.04, 0.00, 0.00
87, 0.00, 0.00, 0.00, 156151.72, 0.00, 0.00, 0.00, 0.00, 0.04, 0.00, 0.00
88, 0.00, 0.00, 0.00, 183021.58, 0.00, 0.00, 0.00, 0.00, 0.04, 0.00, 0.00
89, 0.00, 0.00, 0.00, 305.68, 0.00, 0.00, 0.00, 0.00, 0.04, 0.00, 0.00
90, 0.00, 0.00, 0.00, -59326.36, 0.00, 0.00, 0.00, 0.00, 0.04, 0.00, 0.00
91, 0.00, 0.00, 0.00, 123132.90, 0.00, 0.00, 0.00, 0.00, 0.04, 0.00, 0.00
92, 0.00, 0.00, 0.00, 187500.00, 0.00, 0.00, 0.00, 0.00, 0.04, 0.00, 0.00
93, 0.00, 0.00, 0.00, 35597.01, 0.00, 0.00, 0.00, 0.00, 0.04, 0.00, 0.00
94, 0.00, 0.00, 0.00, -72098.16, 0.00, 0.00, 0.00, 0.00, 0.04, 0.00, 0.00
95, 0.00, 0.00, 0.00, 77537.55, 0.00, 0.00, 0.00, 0.00, 0.04, 0.00, 0.00
96, 0.00, 0.00, 0.00, 187500.00, 0.00, 0.00, 0.00, 0.00, 0.04, 0.00, 0.00
97, 0.00, 0.00, 0.00, 81271.23, 0.00, 0.00, 0.00, 0.00, 0.04, 0.00, 0.00
98, 0.00, 0.00, 0.00, -70141.02, 0.00, 0.00, 0.00, 0.00, 0.04, 0.00, 0.00
99, 0.00, 0.00, 0.00, 44290.49, 0.00, 0.00, 0.00, 0.00, 0.04, 0.00, 0.00
100, 0.00, 0.00, 0.00, 187500.00, 0.00, 0.00, 0.00, 0.00, 0.04, 0.00, 0.00
101, 0.00, 0.00, 0.00, 119142.39, 0.00, 0.00, 0.00, 0.00, 0.04, 0.00, 0.00
102, 0.00, 0.00, 0.00, -60568.96, 0.00, 0.00, 0.00, 0.00, 0.04, 0.00, 0.00
103, 0.00, 0.00, 0.00, 6592.92, 0.00, 0.00, 0.00, 0.00, 0.04, 0.00, 0.00
104, 0.00, 0.00, 0.00, 185999.59, 0.00, 0.00, 0.00, 0.00, 0.04, 0.00, 0.00
105, 0.00, 0.00, 0.00, 151071.03, 0.00, 0.00, 0.00, 0.00, 0.04, 0.00, 0.00
106, 0.00, 0.00, 0.00, -41890.54, 0.00, 0.00, 0.00, 0.00, 0.04, 0.00, 0.00
107, 0.00, 0.00, 0.00, -25052.64, 0.00, 0.00, 0.00, 0.00, 0.04, 0.00, 0.00
108, 0.00, 0.00, 0.00, 167797.06, 0.00, 0.00, 0.00, 0.00, 0.04, 0.00, 0.00
109, 0.00, 0.00, 0.00, 176394.81, 0.00, 0.00, 0.00, 0.00, 0.04, 0.00, 0.00
110, 0.00, 0.00, 0.00, -12039.81, 0.00, 0.00, 0.00, 0.00, 0.04, 0.00, 0.00
111, 0.00, 0.00, 0.00, -49833.68, 0.00, 0.00, 0.00, 0.00, 0.04, 0.00, 0.00
112, 0.00, 0.00, 0.00, 140506.02, 0.00, 0.00, 0.00, 0.00, 0.04, 0.00, 0.00
113, 0.00, 0.00, 0.00, 187500.00, 0.00, 0.00, 0.00, 0.00, 0.04, 0.00, 0.00
114, 0.00, 0.00, 0.00, 18944.35, 0.00, 0.00, 0.00, 0.00, 0.04, 0.00, 0.00
115, 0.00, 0.00, 0.00, -67652.60, 0.00, 0.00, 0.00, 0.00, 0.04, 0.00, 0.00
116, 0.00, 0.00, 0.00, 99053.63, 0.00, 0.00, 0.00, 0.00, 0.04, 0.00, 0.00
117, 0.00, 0.00, 0.00, 187500.00, 0.00, 0.00, 0.00, 0.00, 0.04, 0.00, 0.00
118, 0.00, 0.00, 0.00, 57881.76, 0.00, 0.00, 0.00, 0.00, 0.04, 0.00, 0.00
119, 0.00, 0.00, 0.00, -71125.46, 0.00, 0.00, 0.00, 0.00, 0.04, 0.00, 0.00
120, 0.00, 0.00, 0.00, 67706.36, 0.00, 0.00, 0.00, 0.00, 0.04, 0.00, 0.00
121, 0.00, 0.00, 0.00, 187500.00, 0.00, 0.00, 0.00, 0.00, 0.04, 0.00, 0.00
122, 0.00, 0.00, 0.00, 97976.70, 0.00, 0.00, 0.00, 0.00, 0.04, 0.00, 0.00
123, 0.00, 0.00, 0.00, -67057.82, 0.00, 0.00, 0.00, 0.00, 0.04, 0.00, 0.00
124, 0.00, 0.00, 0.00, 29037.80, 0.00, 0.00, 0.00, 0.00, 0.04, 0.00, 0.00
125, 0.00, 0.00, 0.00, 187500.00, 0.00, 0.00, 0.00, 0.00, 0.04, 0.00, 0.00
126, 0.00, 0.00, 0.00, 131128.67, 0.00, 0.00, 0.00, 0.00, 0.04, 0.00, 0.00
127, 0.00, 0.00, 0.00, -55288.00, 0.00, 0.00, 0.00, 0.00, 0.04, 0.00, 0.00
128, 0.00, 0.00, 0.00, -18345.44, 0.00, 0.00, 0.00, 0.00, 0.04, 0.00, 0.00
129, 0.00, 0.00, 0.00, 172761.64, 0.00, 0.00, 0.00, 0.00, 0.04, 0.00, 0.00
130, 0.00, 0.00, 0.00, 162821.45, 0.00, 0.00, 0.00, 0.00, 0.04, 0.00, 0.00
131, 0.00, 0.00, 0.00, -30690.26, 0.00, 0.00, 0.00, 0.00, 0.04, 0.00, 0.00
132, 0.00, 0.00, 0.00, -37397.39, 0.00, 0.00, 0.00, 0.00, 0.04, 0.00, 0.00
133, 0.00, 0.00, 0.00, 156655.08, 0.00, 0.00, 0.00, 0.00, 0.04, 0.00, 0.00
134, 0.00, 0.00, 0.00, 183406.88, 0.00, 0.00, 0.00, 0.00, 0.04, 0.00, 0.00
135, 0.00, 0.00, 0.00, 1162.25, 0.00, 0.00, 0.00, 0.00, 0.04, 0.00, 0.00
136, 0.00, 0.00, 0.00, -58840.12, 0.00, 0.00, 0.00, 0.00, 0.04, 0.00, 0.00
137, 0.00, 0.00, 0.00, 123951.64, 0.00, 0.00, 0.00, 0.00, 0.04, 0.00, 0.00
138, 0.00, 0.00, 0.00, 187500.00, 0.00, 0.00, 0.00, 0.00, 0.04, 0.00, 0.00
139, 0.00, 0.00, 0.00, 36399.75, 0.00, 0.00, 0.00, 0.00, 0.04, 0.00, 0.00
140, 0.00, 0.00, 0.00, -69480.02, 0.00, 0.00, 0.00, 0.00, 0.04, 0.00, 0.00
141, 0.00, 0.00, 0.00, 87789.22, 0.00, 0.00, 0.00, 0.00, 0.04, 0.00, 0.00
142, 0.00, 0.00, 0.00, 187500.00, 0.00, 0.00, 0.00, 0.00, 0.04, 0.00, 0.00
143, 0.00, 0.00, 0.00, 76220.54, 0.00, 0.00, 0.00, 0.00, 0.04, 0.00, 0.00
144, 0.00, 0.00, 0.00, -71341.73, 0.00, 0.00, 0.00, 0.00, 0.04, 0.00, 0.00
145, 0.00, 0.00, 0.00, 44120.82, 0.00, 0.00, 0.00, 0.00, 0.04, 0.00, 0.00
146, 0.00, 0.00, 0.00, 187500.00, 0.00, 0.00, 0.00, 0.00, 0.04, 0.00, 0.00
147, 0.00, 0.00, 0.00, 113369.45, 0.00, 0.00, 0.00, 0.00, 0.04, 0.00, 0.00
148, 0.00, 0.00, 0.00, -63143.05, 0.00, 0.00, 0.00, 0.00, 0.04, 0.00, 0.00
149, 0.00, 0.00, 0.00, 5249.69, 0.00, 0.00, 0.00, 0.00, 0.04, 0.00, 0.00
150, 0.00, 0.00, 0.00, 185468.47, 0.00, 0.00, 0.00, 0.00, 0.04, 0.00, 0.00
151, 0.00, 0.00, 0.00, 147382.45, 0.00, 0.00, 0.00, 0.00, 0.04, 0.00, 0.00
152, 0.00, 0.00, 0.00, -44876.33, 0.00, 0.00, 0.00, 0.00, 0.04, 0.00, 0.00
153, 0.00, 0.00, 0.00, -25065.49, 0.00, 0.00, 0.00, 0.00, 0.04, 0.00, 0.00
154, 0.00, 0.00, 0.00, 167818.45, 0.00, 0.00, 0.00, 0.00, 0.04, 0.00, 0.00
155, 0.00, 0.00, 0.00, 172241.63, 0.00, 0.00, 0.00, 0.00, 0.04, 0.00, 0.00
156, 0.00, 0.00, 0.00, -18579.71, 0.00, 0.00, 0.00, 0.00, 0.04, 0.00, 0.00
157, 0.00, 0.00, 0.00, -51036.65, 0.00, 0.00, 0.00, 0.00, 0.04, 0.00, 0.00
158, 0.00, 0.00, 0.00, 138824.22, 0.00, 0.00, 0.00, 0.00, 0.04, 0.00, 0.00
159, 0.00, 0.00, 0.00, 187500.00, 0.00, 0.00, 0.00, 0.00, 0.04, 0.00, 0.00
160, 0.00, 0.00, 0.00, 16947.94, 0.00, 0.00, 0.00, 0.00, 0.04, 0.00, 0.00
161, 0.00, 0.00, 0.00, -65444.72, 0.00, 0.00, 0.00, 0.00, 0.04, 0.00, 0.00
162, 0.00, 0.00, 0.00, 105689.13, 0.00, 0.00, 0.00, 0.00, 0.04, 0.00, 0.00
163, 0.00, 0.00, 0.00, 187500.00, 0.00, 0.00, 0.00, 0.00, 0.04, 0.00, 0.00
164, 0.00, 0.00, 0.00, 56135.46, 0.00, 0.00, 0.00, 0.00, 0.04, 0.00, 0.00
165, 0.00, 0.00, 0.00, -71279.29, 0.00, 0.00, 0.00, 0.00, 0.04, 0.00, 0.00
166, 0.00, 0.00, 0.00, 67507.48, 0.00, 0.00, 0.00, 0.00, 0.04, 0.00, 0.00
167, 0.00, 0.00, 0.00, 187500.00, 0.00, 0.00, 0.00, 0.00, 0.04, 0.00, 0.00
168, 0.00, 0.00, 0.00, 91018.91, 0.00, 0.00, 0.00, 0.00, 0.04, 0.00, 0.00
169, 0.00, 0.00, 0.00, -69052.85, 0.00, 0.00, 0.00, 0.00, 0.04, 0.00, 0.00
170, 0.00, 0.00, 0.00, 27799.67, 0.00, 0.00, 0.00, 0.00, 0.04, 0.00, 0.00
171, 0.00, 0.00, 0.00, 187500.00, 0.00, 0.00, 0.00, 0.00, 0.04, 0.00, 0.00
172, 0.00, 0.00, 0.00, 130629.65, 0.00, 0.00, 0.00, 0.00, 0.04, 0.00, 0.00
173, 0.00, 0.00, 0.00, -55139.89, 0.00, 0.00, 0.00, 0.00, 0.04, 0.00, 0.00
174, 0.00, 0.00, 0.00, -4999.33, 0.00, 0.00, 0.00, 0.00, 0.04, 0.00, 0.00
175, 0.00, 0.00, 0.00, 180460.88, 0.00, 0.00, 0.00, 0.00, 0.04, 0.00, 0.00
176, 0.00, 0.00, 0.00, 160233.70, 0.00, 0.00, 0.00, 0.00, 0.04, 0.00, 0.00
177, 0.00, 0.00, 0.00, -33304.57, 0.00, 0.00, 0.00, 0.00, 0.04, 0.00, 0.00
178, 0.00, 0.00, 0.00, -34324.59, 0.00, 0.00, 0.00, 0.00, 0.04, 0.00, 0.00
179, 0.00, 0.00, 0.00, 159549.89, 0.00, 0.00, 0.00, 0.00, 0.04, 0.00, 0.00
180, 0.00, 0.00, 0.00, 181688.73, 0.00, 0.00, 0.00, 0.00, 0.04, 0.00, 0.00
181, 0.00, 0.00, 0.00, -2249.17, 0.00, 0.00, 0.00, 0.00, 0.04, 0.00, 0.00
182, 0.00, 0.00, 0.00, -56679.17, 0.00, 0.00, 0.00, 0.00, 0.04, 0.00, 0.00
183, 0.00, 0.00, 0.00, 128109.45, 0.00, 0.00, 0.00, 0.00, 0.04, 0.00, 0.00
184, 0.00, 0.00, 0.00, 187500.00, 0.00, 0.00, 0.00, 0.00, 0.04, 0.00, 0.00
185, 0.00, 0.00, 0.00, 33275.51, 0.00, 0.00, 0.00, 0.00, 0.04, 0.00, 0.00
186, 0.00, 0.00, 0.00, -68341.93, 0.00, 0.00, 0.00, 0.00, 0.04, 0.00, 0.00
187, 0.00, 0.00, 0.00, 92186.95, 0.00, 0.00, 0.00, 0.00, 0.04, 0.00, 0.00
188, 0.00, 0.00, 0.00, 187500.00, 0.00, 0.00, 0.00, 0.00, 0.04, 0.00, 0.00
189, 0.00, 0.00, 0.00, 73536.21, 0.00, 0.00, 0.00, 0.00, 0.04, 0.00, 0.00
190, 0.00, 0.00, 0.00, -70419.68, 0.00, 0.00, 0.00, 0.00, 0.04, 0.00, 0.00
191, 0.00, 0.00, 0.00, 53644.61, 0.00, 0.00, 0.00, 0.00, 0.04, 0.00, 0.00
192, 0.00, 0.00, 0.00, 187500.00, 0.00, 0.00, 0.00, 0.00, 0.04, 0.00, 0.00
193, 0.00, 0.00, 0.00, 111119.19, 0.00, 0.00, 0.00, 0.00, 0.04, 0.00, 0.00
194, 0.00, 0.00, 0.00, -63330.74, 0.00, 0.00, 0.00, 0.00, 0.04, 0.00, 0.00
195, 0.00, 0.00, 0.00, 14855.44, 0.00, 0.00, 0.00, 0.00, 0.04, 0.00, 0.00
196, 0.00, 0.00, 0.00, 187500.00, 0.00, 0.00, 0.00, 0.00, 0.04, 0.00, 0.00
197, 0.00, 0.00, 0.00, 144688.78, 0.00, 0.00, 0.00, 0.00, 0.04, 0.00, 0.00
198, 0.00, 0.00, 0.00, -46684.84, 0.00, 0.00, 0.00, 0.00, 0.04, 0.00, 0.00
199, 0.00, 0.00, 0.00, -20847.79, 0.00, 0.00, 0.00, 0.00, 0.04, 0.00, 0.00
200, 0.00, 0.00, 0.00, 170845.78, 0.00, 0.00, 0.00, 0.00, 0.04, 0.00, 0.00
201, 0.00, 0.00, 0.00, 171473.33, 0.00, 0.00, 0.00, 0.00, 0.04, 0.00, 0.00
202, 0.00, 0.00, 0.00, -19611.33, 0.00, 0.00, 0.00, 0.00, 0.04, 0.00, 0.00
203, 0.00, 0.00, 0.00, -47702.44, 0.00, 0.00, 0.00, 0.00, 0.04, 0.00, 0.00
204, 0.00, 0.00, 0.00, 143768.00, 0.00, 0.00, 0.00, 0.00, 0.04, 0.00, 0.00
205, 0.00, 0.00, 0.00, 187500.00, 0.00, 0.00, 0.00, 0.00, 0.04, 0.00, 0.00
206, 0.00, 0.00, 0.00, 14377.98, 0.00, 0.00, 0.00, 0.00, 0.04, 0.00, 0.00
207, 0.00, 0.00, 0.00, -62677.24, 0.00, 0.00, 0.00, 0.00, 0.04, 0.00, 0.00
208, 0.00, 0.00, 0.00, 113593.35, 0.00, 0.00, 0.00, 0.00, 0.04, 0.00, 0.00
209, 0.00, 0.00, 0.00, 187500.00, 0.00, 0.00, 0.00, 0.00, 0.04, 0.00, 0.00
210, 0.00, 0.00, 0.00, 51095.66, 0.00, 0.00, 0.00, 0.00, 0.04, 0.00, 0.00
211, 0.00, 0.00, 0.00, -71289.57, 0.00, 0.00, 0.00, 0.00, 0.04, 0.00, 0.00
212, 0.00, 0.00, 0.00, 71938.22, 0.00, 0.00, 0.00, 0.00, 0.04, 0.00, 0.00
213, 0.00, 0.00, 0.00, 187500.00, 0.00, 0.00, 0.00, 0.00, 0.04, 0.00, 0.00
214, 0.00, 0.00, 0.00, 91221.47, 0.00, 0.00, 0.00, 0.00, 0.04, 0.00, 0.00
215, 0.00, 0.00, 0.00, -68469.20, 0.00, 0.00, 0.00, 0.00, 0.04, 0.00, 0.00
216, 0.00, 0.00, 0.00, 35811.05, 0.00, 0.00, 0.00, 0.00, 0.04, 0.00, 0.00
217, 0.00, 0.00, 0.00, 187500.00, 0.00, 0.00, 0.00, 0.00, 0.04, 0.00, 0.00
218, 0.00, 0.00, 0.00, 126572.42, 0.00, 0.00, 0.00, 0.00, 0.04, 0.00, 0.00
219, 0.00, 0.00, 0.00, -57553.86, 0.00, 0.00, 0.00, 0.00, 0.04, 0.00, 0.00
220, 0.00, 0.00, 0.00, -6956.13, 0.00, 0.00, 0.00, 0.00, 0.04, 0.00, 0.00
221, 0.00, 0.00, 0.00, 179543.44, 0.00, 0.00, 0.00, 0.00, 0.04, 0.00, 0.00
222, 0.00, 0.00, 0.00, 157954.50, 0.00, 0.00, 0.00, 0.00, 0.04, 0.00, 0.00
223, 0.00, 0.00, 0.00, -35826.98, 0.00, 0.00, 0.00, 0.00, 0.04, 0.00, 0.00
224, 0.00, 0.00, 0.00, -32990.32, 0.00, 0.00, 0.00, 0.00, 0.04, 0.00, 0.00
225, 0.00, 0.00, 0.00, 161118.52, 0.00, 0.00, 0.00, 0.00, 0.04, 0.00, 0.00
226, 0.00, 0.00, 0.00, 179572.48, 0.00, 0.00, 0.00, 0.00, 0.04, 0.00, 0.00
227, 0.00, 0.00, 0.00, -6497.14, 0.00, 0.00, 0.00, 0.00, 0.04, 0.00, 0.00
228, 0.00, 0.00, 0.00, -55662.64, 0.00, 0.00, 0.00, 0.00, 0.04, 0.00, 0.00
229, 0.00, 0.00, 0.00, 130757.32, 0.00, 0.00, 0.00, 0.00, 0.04, 0.00, 0.00
230, 0.00, 0.00, 0.00, 187500.00, 0.00, 0.00, 0.00, 0.00, 0.04, 0.00, 0.00
231, 0.00, 0.00, 0.00, 30968.14, 0.00, 0.00, 0.00, 0.00, 0.04, 0.00, 0.00
232, 0.00, 0.00, 0.00, -68795.74, 0.00, 0.00, 0.00, 0.00, 0.04, 0.00, 0.00
233, 0.00, 0.00, 0.00, 92395.20, 0.00, 0.00, 0.00, 0.00, 0.04, 0.00, 0.00
234, 0.00, 0.00, 0.00, 187500.00, 0.00, 0.00, 0.00, 0.00, 0.04, 0.00, 0.00
235, 0.00, 0.00, 0.00, 71042.80, 0.00, 0.00, 0.00, 0.00, 0.04, 0.00, 0.00
236, 0.00, 0.00, 0.00, -70920.27, 0.00, 0.00, 0.00, 0.00, 0.04, 0.00, 0.00
237, 0.00, 0.00, 0.00, 55567.80, 0.00, 0.00, 0.00, 0.00, 0.04, 0.00, 0.00
238, 0.00, 0.00, 0.00, 187500.00, 0.00, 0.00, 0.00, 0.00, 0.04, 0.00, 0.00
239, 0.00, 0.00, 0.00, 109626.34, 0.00, 0.00, 0.00, 0.00, 0.04, 0.00, 0.00
240, 0.00, 0.00, 0.00, -64063.81, 0.00, 0.00, 0.00, 0.00, 0.04, 0.00, 0.00
241, 0.00, 0.00, 0.00, 16770.38, 0.00, 0.00, 0.00, 0.00, 0.04, 0.00, 0.00
242, 0.00, 0.00, 0.00, 187500.00, 0.00, 0.00, 0.00, 0.00, 0.04, 0.00, 0.00
243, 0.00, 0.00, 0.00, 144133.72, 0.00, 0.00, 0.00, 0.00, 0.04, 0.00, 0.00
244, 0.00, 0.00, 0.00, -47286.12, 0.00, 0.00, 0.00, 0.00, 0.04, 0.00, 0.00
245, 0.00, 0.00, 0.00, -18671.84, 0.00, 0.00, 0.00, 0.00, 0.04, 0.00, 0.00
246, 0.00, 0.00, 0.00, 172517.27, 0.00, 0.00, 0.00, 0.00, 0.04, 0.00, 0.00
247, 0.00, 0.00, 0.00, 172597.39, 0.00, 0.00, 0.00, 0.00, 0.04, 0.00, 0.00
248, 0.00, 0.00, 0.00, -18100.69, 0.00, 0.00, 0.00, 0.00, 0.04, 0.00, 0.00
249, 0.00, 0.00, 0.00, -48583.93, 0.00, 0.00, 0.00, 0.00, 0.04, 0.00, 0.00
250, 0.00, 0.00, 0.00, 142781.58, 0.00, 0.00, 0.00, 0.00, 0.04, 0.00, 0.00
251, 0.00, 0.00, 0.00, 187488.61, 0.00, 0.00, 0.00, 0.00, 0.04, 0.00, 0.00
252, 0.00, 0.00, 0.00, 10649.62, 0.00, 0.00, 0.00, 0.00, 0.04, 0.00, 0.00
253, 0.00, 0.00, 0.00, -63411.05, 0.00, 0.00, 0.00, 0.00, 0.04, 0.00, 0.00
254, 0.00, 0.00, 0.00, 112899.40, 0.00, 0.00, 0.00, 0.00, 0.04, 0.00, 0.00
255, 0.00, 0.00, 0.00, 187500.00, 0.00, 0.00, 0.00, 0.00, 0.04, 0.00, 0.00
0, 0.00, 0.00, 0.00, 48347.11, 0.00, 0.00, 0.00, 0.00, 0.04, 0.00, 0.00
1, 0.00, 0.00, 0.00, -71125.51, 0.00, 0.00, 0.00, 0.00, 0.04, 0.00, 0.00
2, 0.00, 0.00, 0.00, 75711.03, 0.00, 0.00, 0.00, 0.00, 0.04, 0.00, 0.00
3, 0.00, 0.00, 0.00, 187500.00, 0.00, 0.00, 0.00, 0.00, 0.04, 0.00, 0.00
4, 0.00, 0.00, 0.00, 87482.00, 0.00, 0.00, 0.00, 0.00, 0.04, 0.00, 0.00
5, 0.00, 0.00, 0.00, -69485.34, 0.00, 0.00, 0.00, 0.00, 0.04, 0.00, 0.00
6, 0.00, 0.00, 0.00, 37792.37, 0.00, 0.00, 0.00, 0.00, 0.04, 0.00, 0.00
7, 0.00, 0.00, 0.00, 187500.00, 0.00, 0.00, 0.00, 0.00, 0.04, 0.00, 0.00
8, 0.00, 0.00, 0.00, 124786.05, 0.00, 0.00, 0.00, 0.00, 0.04, 0.00, 0.00
9, 0.00, 0.00, 0.00, -58652.94, 0.00, 0.00, 0.00, 0.00, 0.04, 0.00, 0.00
10, 0.00, 0.00, 0.00, -9439.19, 0.00, 0.00, 0.00, 0.00, 0.04, 0.00, 0.00
11, 0.00, 0.00, 0.00, 178309.00, 0.00, 0.00, 0.00, 0.00, 0.04, 0.00, 0.00
12, 0.00, 0.00, 0.00, 156823.98, 0.00, 0.00, 0.00, 0.00, 0.04, 0.00, 0.00
13, 0.00, 0.00, 0.00, -37049.16, 0.00, 0.00, 0.00, 0.00, 0.04, 0.00, 0.00
14, 0.00, 0.00, 0.00, -34083.26, 0.00, 0.00, 0.00, 0.00, 0.04, 0.00, 0.00
15, 0.00, 0.00, 0.00, 160110.95, 0.00, 0.00, 0.00, 0.00, 0.04, 0.00, 0.00
16, 0.00, 0.00, 0.00, 179654.67, 0.00, 0.00, 0.00, 0.00, 0.04, 0.00, 0.00
17, 0.00, 0.00, 0.00, -6454.98, 0.00, 0.00, 0.00, 0.00, 0.04, 0.00, 0.00
18, 0.00, 0.00, 0.00, -56544.57, 0.00, 0.00, 0.00, 0.00, 0.04, 0.00, 0.00
19, 0.00, 0.00, 0.00, 129343.02, 0.00, 0.00, 0.00, 0.00, 0.04, 0.00, 0.00
20, 0.00, 0.00, 0.00, 187500.00, 0.00, 0.00, 0.00, 0.00, 0.04, 0.00, 0.00
21, 0.00, 0.00, 0.00, 30433.84, 0.00, 0.00, 0.00, 0.00, 0.04, 0.00, 0.00
22, 0.00, 0.00, 0.00, -70540.67, 0.00, 0.00, 0.00, 0.00, 0.04, 0.00, 0.00
23, 0.00, 0.00, 0.00, 86544.07, 0.00, 0.00, 0.00, 0.00, 0.04, 0.00, 0.00
24, 0.00, 0.00, 0.00, 187500.00, 0.00, 0.00, 0.00, 0.00, 0.04, 0.00, 0.00
25, 0.00, 0.00, 0.00, 67024.23, 0.00, 0.00, 0.00, 0.00, 0.04, 0.00, 0.00
26, 0.00, 0.00, 0.00, -72282.05, 0.00, 0.00, 0.00, 0.00, 0.04, 0.00, 0.00
27, 0.00, 0.00, 0.00, 52150.91, 0.00, 0.00, 0.00, 0.00, 0.04, 0.00, 0.00
28, 0.00, 0.00, 0.00, 187500.00, 0.00, 0.00, 0.00, 0.00, 0.04, 0.00, 0.00
29, 0.00, 0.00, 0.00, 105726.50, 0.00, 0.00, 0.00, 0.00, 0.04, 0.00, 0.00
30, 0.00, 0.00, 0.00, -65576.24, 0.00, 0.00, 0.00, 0.00, 0.04, 0.00, 0.00
31, 0.00, 0.00, 0.00, 17084.64, 0.00, 0.00, 0.00, 0.00, 0.04, 0.00, 0.00
32, 0.00, 0.00, 0.00, 187500.00, 0.00, 0.00, 0.00, 0.00, 0.04, 0.00, 0.00
33, 0.00, 0.00, 0.00, 140982.75, 0.00, 0.00, 0.00, 0.00, 0.04, 0.00, 0.00
34, 0.00, 0.00, 0.00, -49534.66, 0.00, 0.00, 0.00, 0.00, 0.04, 0.00, 0.00
35, 0.00, 0.00, 0.00, -16511.79, 0.00, 0.00, 0.00, 0.00, 0.04, 0.00, 0.00
36, 0.00, 0.00, 0.00, 174011.03, 0.00, 0.00, 0.00, 0.00, 0.04, 0.00, 0.00
37, 0.00, 0.00, 0.00, 168617.73, 0.00, 0.00, 0.00, 0.00, 0.04, 0.00, 0.00
38, 0.00, 0.00, 0.00, -23823.96, 0.00, 0.00, 0.00, 0.00, 0.04, 0.00, 0.00
39, 0.00, 0.00, 0.00, -50246.86, 0.00, 0.00, 0.00, 0.00, 0.04, 0.00, 0.00
40, 0.00, 0.00, 0.00, 140617.22, 0.00, 0.00, 0.00, 0.00, 0.04, 0.00, 0.00
41, 0.00, 0.00, 0.00, 187339.70, 0.00, 0.00, 0.00, 0.00, 0.04, 0.00, 0.00
42, 0.00, 0.00, 0.00, 10269.08, 0.00, 0.00, 0.00, 0.00, 0.04, 0.00, 0.00
43, 0.00, 0.00, 0.00, -63813.25, 0.00, 0.00, 0.00, 0.00, 0.04, 0.00, 0.00
44, 0.00, 0.00, 0.00, 112126.59, 0.00, 0.00, 0.00, 0.00, 0.04, 0.00, 0.00
45, 0.00, 0.00, 0.00, 187500.00, 0.00, 0.00, 0.00, 0.00, 0.04, 0.00, 0.00
46, 0.00, 0.00, 0.00, 45847.18, 0.00, 0.00, 0.00, 0.00, 0.04, 0.00, 0.00
47, 0.00, 0.00, 0.00, -72062.85, 0.00, 0.00, 0.00, 0.00, 0.04, 0.00, 0.00
48, 0.00, 0.00, 0.00, 72869.45, 0.00, 0.00, 0.00, 0.00, 0.04, 0.00, 0.00
49, 0.00, 0.00, 0.00, 187500.00, 0.00, 0.00, 0.00, 0.00, 0.04, 0.00, 0.00
50, 0.00, 0.00, 0.00, 88858.77, 0.00, 0.00, 0.00, 0.00, 0.04, 0.00, 0.00
51, 0.00, 0.00, 0.00, -69532.56, 0.00, 0.00, 0.00, 0.00, 0.04, 0.00, 0.00
52, 0.00, 0.00, 0.00, 33834.19, 0.00, 0.00, 0.00, 0.00, 0.04, 0.00, 0.00
53, 0.00, 0.00, 0.00, 187500.00, 0.00, 0.00, 0.00, 0.00, 0.04, 0.00, 0.00
54, 0.00, 0.00, 0.00, 126151.52, 0.00, 0.00, 0.00, 0.00, 0.04, 0.00, 0.00
55, 0.00, 0.00, 0.00, -57765.42, 0.00, 0.00, 0.00, 0.00, 0.04, 0.00, 0.00
56, 0.00, 0.00, 0.00, -1500.96, 0.00, 0.00, 0.00, 0.00, 0.04, 0.00, 0.00
57, 0.00, 0.00, 0.00, 182393.31, 0.00, 0.00, 0.00, 0.00, 0.04, 0.00, 0.00
58, 0.00, 0.00, 0.00, 155959.47, 0.00, 0.00, 0.00, 0.00, 0.04, 0.00, 0.00
59, 0.00, 0.00, 0.00, -37801.34, 0.00, 0.00, 0.00, 0.00, 0.04, 0.00, 0.00
60, 0.00, 0.00, 0.00, -33221.29, 0.00, 0.00, 0.00, 0.00, 0.04, 0.00, 0.00
61, 0.00, 0.00, 0.00, 160995.56, 0.00, 0.00, 0.00, 0.00, 0.04, 0.00, 0.00
62, 0.00, 0.00, 0.00, 178334.81, 0.00, 0.00, 0.00, 0.00, 0.04, 0.00, 0.00
63, 0.00, 0.00, 0.00, -8809.02, 0.00, 0.00, 0.00, 0.00, 0.04, 0.00, 0.00
64, 0.00, 0.00, 0.00, -54894.00, 0.00, 0.00, 0.00, 0.00, 0.04, 0.00, 0.00
65, 0.00, 0.00, 0.00, 132314.75, 0.00, 0.00, 0.00, 0.00, 0.04, 0.00, 0.00
66, 0.00, 0.00, 0.00, 187500.00, 0.00, 0.00, 0.00, 0.00, 0.04, 0.00, 0.00
67, 0.00, 0.00, 0.00, 26735.72, 0.00, 0.00, 0.00, 0.00, 0.04, 0.00, 0.00
68, 0.00, 0.00, 0.00, -70095.60, 0.00, 0.00, 0.00, 0.00, 0.04, 0.00, 0.00
69, 0.00, 0.00, 0.00, 89049.15, 0.00, 0.00, 0.00, 0.00, 0.04, 0.00, 0.00
70, 0.00, 0.00, 0.00, 187500.00, 0.00, 0.00, 0.00, 0.00, 0.04, 0.00, 0.00
71, 0.00, 0.00, 0.00, 66534.77, 0.00, 0.00, 0.00, 0.00, 0.04, 0.00, 0.00
72, 0.00, 0.00, 0.00, -72992.48, 0.00, 0.00, 0.00, 0.00, 0.04, 0.00, 0.00
73, 0.00, 0.00, 0.00, 46476.83, 0.00, 0.00, 0.00, 0.00, 0.04, 0.00, 0.00
74, 0.00, 0.00, 0.00, 187500.00, 0.00, 0.00, 0.00, 0.00, 0.04, 0.00, 0.00
75, 0.00, 0.00, 0.00, 104297.23, 0.00, 0.00, 0.00, 0.00, 0.04, 0.00, 0.00
76, 0.00, 0.00, 0.00, -65870.56, 0.00, 0.00, 0.00, 0.00, 0.04, 0.00, 0.00
77, 0.00, 0.00, 0.00, 17594.29, 0.00, 0.00, 0.00, 0.00, 0.04, 0.00, 0.00
78, 0.00, 0.00, 0.00, 187500.00, 0.00, 0.00, 0.00, 0.00, 0.04, 0.00, 0.00
79, 0.00, 0.00, 0.00, 139619.98, 0.00, 0.00, 0.00, 0.00, 0.04, 0.00, 0.00
80, 0.00, 0.00, 0.00, -50244.75, 0.00, 0.00, 0.00, 0.00, 0.04, 0.00, 0.00
81, 0.00, 0.00, 0.00, -18898.09, 0.00, 0.00, 0.00, 0.00, 0.04, 0.00, 0.00
82, 0.00, 0.00, 0.00, 172339.08, 0.00, 0.00, 0.00, 0.00, 0.04, 0.00, 0.00
83, 0.00, 0.00, 0.00, 166879.03, 0.00, 0.00, 0.00, 0.00, 0.04, 0.00, 0.00
84, 0.00, 0.00, 0.00, -25857.08, 0.00, 0.00, 0.00, 0.00, 0.04, 0.00, 0.00
85, 0.00, 0.00, 0.00, -50321.80, 0.00, 0.00, 0.00, 0.00, 0.04, 0.00, 0.00
86, 0.00, 0.00, 0.00, 140103.52, 0.00, 0.00, 0.00, 0.00, 0.04, 0.00, 0.00
87, 0.00, 0.00, 0.00, 186094.38, 0.00, 0.00, 0.00, 0.00, 0.04, 0.00, 0.00
88, 0.00, 0.00, 0.00, 7419.62, 0.00, 0.00, 0.00, 0.00, 0.04, 0.00, 0.00
89, 0.00, 0.00, 0.00, -64882.71, 0.00, 0.00, 0.00, 0.00, 0.04, 0.00, 0.00
90, 0.00, 0.00, 0.00, 108902.32, 0.00, 0.00, 0.00, 0.00, 0.04, 0.00, 0.00
91, 0.00, 0.00, 0.00, 187500.00, 0.00, 0.00, 0.00, 0.00, 0.04, 0.00, 0.00
92, 0.00, 0.00, 0.00, 44600.80, 0.00, 0.00, 0.00, 0.00, 0.04, 0.00, 0.00
93, 0.00, 0.00, 0.00, -71386.64, 0.00, 0.00, 0.00, 0.00, 0.04, 0.00, 0.00
94, 0.00, 0.00, 0.00, 75287.91, 0.00, 0.00, 0.00, 0.00, 0.04, 0.00, 0.00
95, 0.00, 0.00, 0.00, 187500.00, 0.00, 0.00, 0.00, 0.00, 0.04, 0.00, 0.00
96, 0.00, 0.00, 0.00, 83710.16, 0.00, 0.00, 0.00, 0.00, 0.04, 0.00, 0.00
97, 0.00, 0.00, 0.00, -70362.71, 0.00, 0.00, 0.00, 0.00, 0.04, 0.00, 0.00
98, 0.00, 0.00, 0.00, 35107.79, 0.00, 0.00, 0.00, 0.00, 0.04, 0.00, 0.00
99, 0.00, 0.00, 0.00, 187500.00, 0.00, 0.00, 0.00, 0.00, 0.04, 0.00, 0.00
100, 0.00, 0.00, 0.00, 123232.78, 0.00, 0.00, 0.00, 0.00, 0.04, 0.00, 0.00
101, 0.00, 0.00, 0.00, -58834.73, 0.00, 0.00, 0.00, 0.00, 0.04, 0.00, 0.00
102, 0.00, 0.00, 0.00, -1700.88, 0.00, 0.00, 0.00, 0.00, 0.04, 0.00, 0.00
103, 0.00, 0.00, 0.00, 182176.66, 0.00, 0.00, 0.00, 0.00, 0.04, 0.00, 0.00
104, 0.00, 0.00, 0.00, 154996.69, 0.00, 0.00, 0.00, 0.00, 0.04, 0.00, 0.00
105, 0.00, 0.00, 0.00, -38366.90, 0.00, 0.00, 0.00, 0.00, 0.04, 0.00, 0.00
106, 0.00, 0.00, 0.00, -34006.14, 0.00, 0.00, 0.00, 0.00, 0.04, 0.00, 0.00
107, 0.00, 0.00, 0.00, 159946.81, 0.00, 0.00, 0.00, 0.00, 0.04, 0.00, 0.00
108, 0.00, 0.00, 0.00, 175839.80, 0.00, 0.00, 0.00, 0.00, 0.04, 0.00, 0.00
109, 0.00, 0.00, 0.00, -12849.95, 0.00, 0.00, 0.00, 0.00, 0.04, 0.00, 0.00
110, 0.00, 0.00, 0.00, -55190.30, 0.00, 0.00, 0.00, 0.00, 0.04, 0.00, 0.00
111, 0.00, 0.00, 0.00, 131355.59, 0.00, 0.00, 0.00, 0.00, 0.04, 0.00, 0.00
112, 0.00, 0.00, 0.00, 187500.00, 0.00, 0.00, 0.00, 0.00, 0.04, 0.00, 0.00
113, 0.00, 0.00, 0.00, 29361.47, 0.00, 0.00, 0.00, 0.00, 0.04, 0.00, 0.00
114, 0.00, 0.00, 0.00, -68307.91, 0.00, 0.00, 0.00, 0.00, 0.04, 0.00, 0.00
115, 0.00, 0.00, 0.00, 93580.63, 0.00, 0.00, 0.00, 0.00, 0.04, 0.00, 0.00
116, 0.00, 0.00, 0.00, 187500.00, 0.00, 0.00, 0.00, 0.00, 0.04, 0.00, 0.00
117, 0.00, 0.00, 0.00, 65864.77, 0.00, 0.00, 0.00, 0.00, 0.04, 0.00, 0.00
118, 0.00, 0.00, 0.00, -71701.33, 0.00, 0.00, 0.00, 0.00, 0.04, 0.00, 0.00
119, 0.00, 0.00, 0.00, 54590.87, 0.00, 0.00, 0.00, 0.00, 0.04, 0.00, 0.00
120, 0.00, 0.00, 0.00, 187500.00, 0.00, 0.00, 0.00, 0.00, 0.04, 0.00, 0.00
121, 0.00, 0.00, 0.00, 101451.19, 0.00, 0.00, 0.00, 0.00, 0.04, 0.00, 0.00
122, 0.00, 0.00, 0.00, -66475.34, 0.00, 0.00, 0.00, 0.00, 0.04, 0.00, 0.00
123, 0.00, 0.00, 0.00, 18208.09, 0.00, 0.00, 0.00, 0.00, 0.04, 0.00, 0.00
124, 0.00, 0.00, 0.00, 187500.00, 0.00, 0.00, 0.00, 0.00, 0.04, 0.00, 0.00
125, 0.00, 0.00, 0.00, 137119.81, 0.00, 0.00, 0.00, 0.00, 0.04, 0.00, 0.00
126, 0.00, 0.00, 0.00, -51493.75, 0.00, 0.00, 0.00, 0.00, 0.04, 0.00, 0.00
127, 0.00, 0.00, 0.00, -16599.95, 0.00, 0.00, 0.00, 0.00, 0.04, 0.00, 0.00
128, 0.00, 0.00, 0.00, 173693.05, 0.00, 0.00, 0.00, 0.00, 0.04, 0.00, 0.00
129, 0.00, 0.00, 0.00, 165463.31, 0.00, 0.00, 0.00, 0.00, 0.04, 0.00, 0.00
130, 0.00, 0.00, 0.00, -27341.61, 0.00, 0.00, 0.00, 0.00, 0.04, 0.00, 0.00
131, 0.00, 0.00, 0.00, -44856.78, 0.00, 0.00, 0.00, 0.00, 0.04, 0.00, 0.00
132, 0.00, 0.00, 0.00, 147453.31, 0.00, 0.00, 0.00, 0.00, 0.04, 0.00, 0.00
133, 0.00, 0.00, 0.00, 186193.20, 0.00, 0.00, 0.00, 0.00, 0.04, 0.00, 0.00
134, 0.00, 0.00, 0.00, 7741.82, 0.00, 0.00, 0.00, 0.00, 0.04, 0.00, 0.00
135, 0.00, 0.00, 0.00, -64576.80, 0.00, 0.00, 0.00, 0.00, 0.04, 0.00, 0.00
136, 0.00, 0.00, 0.00, 108785.22, 0.00, 0.00, 0.00, 0.00, 0.04, 0.00, 0.00
137, 0.00, 0.00, 0.00, 187500.00, 0.00, 0.00, 0.00, 0.00, 0.04, 0.00, 0.00
138, 0.00, 0.00, 0.00, 42599.32, 0.00, 0.00, 0.00, 0.00, 0.04, 0.00, 0.00
139, 0.00, 0.00, 0.00, -70304.13, 0.00, 0.00, 0.00, 0.00, 0.04, 0.00, 0.00
140, 0.00, 0.00, 0.00, 79693.55, 0.00, 0.00, 0.00, 0.00, 0.04, 0.00, 0.00
141, 0.00, 0.00, 0.00, 187500.00, 0.00, 0.00, 0.00, 0.00, 0.04, 0.00, 0.00
142, 0.00, 0.00, 0.00, 82908.41, 0.00, 0.00, 0.00, 0.00, 0.04, 0.00, 0.00
143, 0.00, 0.00, 0.00, -70044.87, 0.00, 0.00, 0.00, 0.00, 0.04, 0.00, 0.00
144, 0.00, 0.00, 0.00, 37132.30, 0.00, 0.00, 0.00, 0.00, 0.04, 0.00, 0.00
145, 0.00, 0.00, 0.00, 187500.00, 0.00, 0.00, 0.00, 0.00, 0.04, 0.00, 0.00
146, 0.00, 0.00, 0.00, 109868.45, 0.00, 0.00, 0.00, 0.00, 0.04, 0.00, 0.00
147, 0.00, 0.00, 0.00, -64028.22, 0.00, 0.00, 0.00, 0.00, 0.04, 0.00, 0.00
148, 0.00, 0.00, 0.00, 2901.19, 0.00, 0.00, 0.00, 0.00, 0.04, 0.00, 0.00
149, 0.00, 0.00, 0.00, 184199.67, 0.00, 0.00, 0.00, 0.00, 0.04, 0.00, 0.00
150, 0.00, 0.00, 0.00, 145331.53, 0.00, 0.00, 0.00, 0.00, 0.04, 0.00, 0.00
151, 0.00, 0.00, 0.00, -45908.13, 0.00, 0.00, 0.00, 0.00, 0.04, 0.00, 0.00
152, 0.00, 0.00, 0.00, -29791.16, 0.00, 0.00, 0.00, 0.00, 0.04, 0.00, 0.00
153, 0.00, 0.00, 0.00, 163533.92, 0.00, 0.00, 0.00, 0.00, 0.04, 0.00, 0.00
154, 0.00, 0.00, 0.00, 177171.56, 0.00, 0.00, 0.00, 0.00, 0.04, 0.00, 0.00
155, 0.00, 0.00, 0.00, -10307.86, 0.00, 0.00, 0.00, 0.00, 0.04, 0.00, 0.00
156, 0.00, 0.00, 0.00, -52170.87, 0.00, 0.00, 0.00, 0.00, 0.04, 0.00, 0.00
157, 0.00, 0.00, 0.00, 135714.89, 0.00, 0.00, 0.00, 0.00, 0.04, 0.00, 0.00
158, 0.00, 0.00, 0.00, 187500.00, 0.00, 0.00, 0.00, 0.00, 0.04, 0.00, 0.00
159, 0.00, 0.00, 0.00, 26128.92, 0.00, 0.00, 0.00, 0.00, 0.04, 0.00, 0.00
160, 0.00, 0.00, 0.00, -65908.61, 0.00, 0.00, 0.00, 0.00, 0.04, 0.00, 0.00
161, 0.00, 0.00, 0.00, 100694.27, 0.00, 0.00, 0.00, 0.00, 0.04, 0.00, 0.00
162, 0.00, 0.00, 0.00, 187500.00, 0.00, 0.00, 0.00, 0.00, 0.04, 0.00, 0.00
163, 0.00, 0.00, 0.00, 62271.11, 0.00, 0.00, 0.00, 0.00, 0.04, 0.00, 0.00
164, 0.00, 0.00, 0.00, -70471.12, 0.00, 0.00, 0.00, 0.00, 0.04, 0.00, 0.00
165, 0.00, 0.00, 0.00, 63399.89, 0.00, 0.00, 0.00, 0.00, 0.04, 0.00, 0.00
166, 0.00, 0.00, 0.00, 187500.00, 0.00, 0.00, 0.00, 0.00, 0.04, 0.00, 0.00
167, 0.00, 0.00, 0.00, 101841.20, 0.00, 0.00, 0.00, 0.00, 0.04, 0.00, 0.00
168, 0.00, 0.00, 0.00, -65481.76, 0.00, 0.00, 0.00, 0.00, 0.04, 0.00, 0.00
169, 0.00, 0.00, 0.00, 24669.98, 0.00, 0.00, 0.00, 0.00, 0.04, 0.00, 0.00
170, 0.00, 0.00, 0.00, 187500.00, 0.00, 0.00, 0.00, 0.00, 0.04, 0.00, 0.00
171, 0.00, 0.00, 0.00, 136743.23, 0.00, 0.00, 0.00, 0.00, 0.04, 0.00, 0.00
172, 0.00, 0.00, 0.00, -51337.30, 0.00, 0.00, 0.00, 0.00, 0.04, 0.00, 0.00
173, 0.00, 0.00, 0.00, -13364.87, 0.00, 0.00, 0.00, 0.00, 0.04, 0.00, 0.00
174, 0.00, 0.00, 0.00, 175515.64, 0.00, 0.00, 0.00, 0.00, 0.04, 0.00, 0.00
175, 0.00, 0.00, 0.00, 165541.42, 0.00, 0.00, 0.00, 0.00, 0.04, 0.00, 0.00
176, 0.00, 0.00, 0.00, -26991.83, 0.00, 0.00, 0.00, 0.00, 0.04, 0.00, 0.00
177, 0.00, 0.00, 0.00, -42940.43, 0.00, 0.00, 0.00, 0.00, 0.04, 0.00, 0.00
178, 0.00, 0.00, 0.00, 149454.47, 0.00, 0.00, 0.00, 0.00, 0.04, 0.00, 0.00
179, 0.00, 0.00, 0.00, 183727.42, 0.00, 0.00, 0.00, 0.00, 0.04, 0.00, 0.00
180, 0.00, 0.00, 0.00, 2327.67, 0.00, 0.00, 0.00, 0.00, 0.04, 0.00, 0.00
181, 0.00, 0.00, 0.00, -59681.77, 0.00, 0.00, 0.00, 0.00, 0.04, 0.00, 0.00
182, 0.00, 0.00, 0.00, 120609.43, 0.00, 0.00, 0.00, 0.00, 0.04, 0.00, 0.00
183, 0.00, 0.00, 0.00, 187500.00, 0.00, 0.00, 0.00, 0.00, 0.04, 0.00, 0.00
184, 0.00, 0.00, 0.00, 42796.41, 0.00, 0.00, 0.00, 0.00, 0.04, 0.00, 0.00
185, 0.00, 0.00, 0.00, -69889.43, 0.00, 0.00, 0.00, 0.00, 0.04, 0.00, 0.00
186, 0.00, 0.00, 0.00, 80412.61, 0.00, 0.00, 0.00, 0.00, 0.04, 0.00, 0.00
187, 0.00, 0.00, 0.00, 187500.00, 0.00, 0.00, 0.00, 0.00, 0.04, 0.00, 0.00
188, 0.00, 0.00, 0.00, 78992.18, 0.00, 0.00, 0.00, 0.00, 0.04, 0.00, 0.00
189, 0.00, 0.00, 0.00, -71027.92, 0.00, 0.00, 0.00, 0.00, 0.04, 0.00, 0.00
190, 0.00, 0.00, 0.00, 34603.88, 0.00, 0.00, 0.00, 0.00, 0.04, 0.00, 0.00
191, 0.00, 0.00, 0.00, 187500.00, 0.00, 0.00, 0.00, 0.00, 0.04, 0.00, 0.00
192, 0.00, 0.00, 0.00, 109265.00, 0.00, 0.00, 0.00, 0.00, 0.04, 0.00, 0.00
193, 0.00, 0.00, 0.00, -64033.45, 0.00, 0.00, 0.00, 0.00, 0.04, 0.00, 0.00
194, 0.00, 0.00, 0.00, 5004.29, 0.00, 0.00, 0.00, 0.00, 0.04, 0.00, 0.00
195, 0.00, 0.00, 0.00, 185093.41, 0.00, 0.00, 0.00, 0.00, 0.04, 0.00, 0.00
196, 0.00, 0.00, 0.00, 154990.09, 0.00, 0.00, 0.00, 0.00, 0.04, 0.00, 0.00
197, 0.00, 0.00, 0.00, -37870.05, 0.00, 0.00, 0.00, 0.00, 0.04, 0.00, 0.00
198, 0.00, 0.00, 0.00, -28656.43, 0.00, 0.00, 0.00, 0.00, 0.04, 0.00, 0.00
199, 0.00, 0.00, 0.00, 164381.45, 0.00, 0.00, 0.00, 0.00, 0.04, 0.00, 0.00
200, 0.00, 0.00, 0.00, 176379.80, 0.00, 0.00, 0.00, 0.00, 0.04, 0.00, 0.00
201, 0.00, 0.00, 0.00, -11514.48, 0.00, 0.00, 0.00, 0.00, 0.04, 0.00, 0.00
202, 0.00, 0.00, 0.00, -53459.49, 0.00, 0.00, 0.00, 0.00, 0.04, 0.00, 0.00
203, 0.00, 0.00, 0.00, 133294.47, 0.00, 0.00, 0.00, 0.00, 0.04, 0.00, 0.00
204, 0.00, 0.00, 0.00, 187500.00, 0.00, 0.00, 0.00, 0.00, 0.04, 0.00, 0.00
205, 0.00, 0.00, 0.00, 24495.07, 0.00, 0.00, 0.00, 0.00, 0.04, 0.00, 0.00
206, 0.00, 0.00, 0.00, -65479.01, 0.00, 0.00, 0.00, 0.00, 0.04, 0.00, 0.00
207, 0.00, 0.00, 0.00, 101863.91, 0.00, 0.00, 0.00, 0.00, 0.04, 0.00, 0.00
208, 0.00, 0.00, 0.00, 187500.00, 0.00, 0.00, 0.00, 0.00, 0.04, 0.00, 0.00
209, 0.00, 0.00, 0.00, 57111.72, 0.00, 0.00, 0.00, 0.00, 0.04, 0.00, 0.00
210, 0.00, 0.00, 0.00, -70912.90, 0.00, 0.00, 0.00, 0.00, 0.04, 0.00, 0.00
211, 0.00, 0.00, 0.00, 65080.21, 0.00, 0.00, 0.00, 0.00, 0.04, 0.00, 0.00
212, 0.00, 0.00, 0.00, 187500.00, 0.00, 0.00, 0.00, 0.00, 0.04, 0.00, 0.00
213, 0.00, 0.00, 0.00, 100115.72, 0.00, 0.00, 0.00, 0.00, 0.04, 0.00, 0.00
214, 0.00, 0.00, 0.00, -66082.39, 0.00, 0.00, 0.00, 0.00, 0.04, 0.00, 0.00
215, 0.00, 0.00, 0.00, 22988.99, 0.00, 0.00, 0.00, 0.00, 0.04, 0.00, 0.00
216, 0.00, 0.00, 0.00, 187500.00, 0.00, 0.00, 0.00, 0.00, 0.04, 0.00, 0.00
217, 0.00, 0.00, 0.00, 134856.00, 0.00, 0.00, 0.00, 0.00, 0.04, 0.00, 0.00
218, 0.00, 0.00, 0.00, -52375.41, 0.00, 0.00, 0.00, 0.00, 0.04, 0.00, 0.00
219, 0.00, 0.00, 0.00, -13001.14, 0.00, 0.00, 0.00, 0.00, 0.04, 0.00, 0.00
220, 0.00, 0.00, 0.00, 175703.95, 0.00, 0.00, 0.00, 0.00, 0.04, 0.00, 0.00
221, 0.00, 0.00, 0.00, 165251.02, 0.00, 0.00, 0.00, 0.00, 0.04, 0.00, 0.00
222, 0.00, 0.00, 0.00, -27259.67, 0.00, 0.00, 0.00, 0.00, 0.04, 0.00, 0.00
223, 0.00, 0.00, 0.00, -39366.52, 0.00, 0.00, 0.00, 0.00, 0.04, 0.00, 0.00
224, 0.00, 0.00, 0.00, 153704.92, 0.00, 0.00, 0.00, 0.00, 0.04, 0.00, 0.00
225, 0.00, 0.00, 0.00, 184230.64, 0.00, 0.00, 0.00, 0.00, 0.04, 0.00, 0.00
226, 0.00, 0.00, 0.00, 3471.18, 0.00, 0.00, 0.00, 0.00, 0.04, 0.00, 0.00
227, 0.00, 0.00, 0.00, -58223.36, 0.00, 0.00, 0.00, 0.00, 0.04, 0.00, 0.00
228, 0.00, 0.00, 0.00, 123426.51, 0.00, 0.00, 0.00, 0.00, 0.04, 0.00, 0.00
229, 0.00, 0.00, 0.00, 187500.00, 0.00, 0.00, 0.00, 0.00, 0.04, 0.00, 0.00
230, 0.00, 0.00, 0.00, 40571.57, 0.00, 0.00, 0.00, 0.00, 0.04, 0.00, 0.00
231, 0.00, 0.00, 0.00, -68559.33, 0.00, 0.00, 0.00, 0.00, 0.04, 0.00, 0.00
232, 0.00, 0.00, 0.00, 86517.38, 0.00, 0.00, 0.00, 0.00, 0.04, 0.00, 0.00
233, 0.00, 0.00, 0.00, 187500.00, 0.00, 0.00, 0.00, 0.00, 0.04, 0.00, 0.00
234, 0.00, 0.00, 0.00, 81777.92, 0.00, 0.00, 0.00, 0.00, 0.04, 0.00, 0.00
235, 0.00, 0.00, 0.00, -69320.40, 0.00, 0.00, 0.00, 0.00, 0.04, 0.00, 0.00
236, 0.00, 0.00, 0.00, 43972.99, 0.00, 0.00, 0.00, 0.00, 0.04, 0.00, 0.00
237, 0.00, 0.00, 0.00, 187500.00, 0.00, 0.00, 0.00, 0.00, 0.04, 0.00, 0.00
238, 0.00, 0.00, 0.00, 116167.00, 0.00, 0.00, 0.00, 0.00, 0.04, 0.00, 0.00
239, 0.00, 0.00, 0.00, -61139.11, 0.00, 0.00, 0.00, 0.00, 0.04, 0.00, 0.00
240, 0.00, 0.00, 0.00, 8385.91, 0.00, 0.00, 0.00, 0.00, 0.04, 0.00, 0.00
241, 0.00, 0.00, 0.00, 186532.31, 0.00, 0.00, 0.00, 0.00, 0.04, 0.00, 0.00
242, 0.00, 0.00, 0.00, 149343.06, 0.00, 0.00, 0.00, 0.00, 0.04, 0.00, 0.00
243, 0.00, 0.00, 0.00, -42762.95, 0.00, 0.00, 0.00, 0.00, 0.04, 0.00, 0.00
244, 0.00, 0.00, 0.00, -24308.55, 0.00, 0.00, 0.00, 0.00, 0.04, 0.00, 0.00
245, 0.00, 0.00, 0.00, 167995.89, 0.00, 0.00, 0.00, 0.00, 0.04, 0.00, 0.00
246, 0.00, 0.00, 0.00, 173802.36, 0.00, 0.00, 0.00, 0.00, 0.04, 0.00, 0.00
247, 0.00, 0.00, 0.00, -15780.02, 0.00, 0.00, 0.00, 0.00, 0.04, 0.00, 0.00
248, 0.00, 0.00, 0.00, -48914.24, 0.00, 0.00, 0.00, 0.00, 0.04, 0.00, 0.00
249, 0.00, 0.00, 0.00, 141164.06, 0.00, 0.00, 0.00, 0.00, 0.04, 0.00, 0.00
250, 0.00, 0.00, 0.00, 187500.00, 0.00, 0.00, 0.00, 0.00, 0.04, 0.00, 0.00
251, 0.00, 0.00, 0.00, 18641.49, 0.00, 0.00, 0.00, 0.00, 0.04, 0.00, 0.00
252, 0.00, 0.00, 0.00, -67551.64, 0.00, 0.00, 0.00, 0.00, 0.04, 0.00, 0.00
253, 0.00, 0.00, 0.00, 97430.58, 0.00, 0.00, 0.00, 0.00, 0.04, 0.00, 0.00
254, 0.00, 0.00, 0.00, 187500.00, 0.00, 0.00, 0.00, 0.00, 0.04, 0.00, 0.00
255, 0.00, 0.00, 0.00, 59199.91, 0.00, 0.00, 0.00, 0.00, 0.04, 0.00, 0.00
0, 0.00, 0.00, 0.00, -71299.63, 0.00, 0.00, 0.00, 0.00, 0.04, 0.00, 0.00
1, 0.00, 0.00, 0.00, 62079.02, 0.00, 0.00, 0.00, 0.00, 0.04, 0.00, 0.00
2, 0.00, 0.00, 0.00, 187500.00, 0.00, 0.00, 0.00, 0.00, 0.04, 0.00, 0.00
3, 0.00, 0.00, 0.00, 96380.85, 0.00, 0.00, 0.00, 0.00, 0.04, 0.00, 0.00
4, 0.00, 0.00, 0.00, -67348.35, 0.00, 0.00, 0.00, 0.00, 0.04, 0.00, 0.00
5, 0.00, 0.00, 0.00, 24213.85, 0.00, 0.00, 0.00, 0.00, 0.04, 0.00, 0.00
6, 0.00, 0.00, 0.00, 187500.00, 0.00, 0.00, 0.00, 0.00, 0.04, 0.00, 0.00
7, 0.00, 0.00, 0.00, 132622.66, 0.00, 0.00, 0.00, 0.00, 0.04, 0.00, 0.00
8, 0.00, 0.00, 0.00, -53753.24, 0.00, 0.00, 0.00, 0.00, 0.04, 0.00, 0.00
9, 0.00, 0.00, 0.00, -9390.06, 0.00, 0.00, 0.00, 0.00, 0.04, 0.00, 0.00
10, 0.00, 0.00, 0.00, 177915.09, 0.00, 0.00, 0.00, 0.00, 0.04, 0.00, 0.00
11, 0.00, 0.00, 0.00, 161115.34, 0.00, 0.00, 0.00, 0.00, 0.04, 0.00, 0.00
12, 0.00, 0.00, 0.00, -32024.39, 0.00, 0.00, 0.00, 0.00, 0.04, 0.00, 0.00
13, 0.00, 0.00, 0.00, -37704.75, 0.00, 0.00, 0.00, 0.00, 0.04, 0.00, 0.00
14, 0.00, 0.00, 0.00, 155707.14, 0.00, 0.00, 0.00, 0.00, 0.04, 0.00, 0.00
15, 0.00, 0.00, 0.00, 183168.20, 0.00, 0.00, 0.00, 0.00, 0.04, 0.00, 0.00
16, 0.00, 0.00, 0.00, 1090.65, 0.00, 0.00, 0.00, 0.00, 0.04, 0.00, 0.00
17, 0.00, 0.00, 0.00, -58543.48, 0.00, 0.00, 0.00, 0.00, 0.04, 0.00, 0.00
18, 0.00, 0.00, 0.00, 123219.55, 0.00, 0.00, 0.00, 0.00, 0.04, 0.00, 0.00
19, 0.00, 0.00, 0.00, 187500.00, 0.00, 0.00, 0.00, 0.00, 0.04, 0.00, 0.00
20, 0.00, 0.00, 0.00, 37456.29, 0.00, 0.00, 0.00, 0.00, 0.04, 0.00, 0.00
21, 0.00, 0.00, 0.00, -69121.88, 0.00, 0.00, 0.00, 0.00, 0.04, 0.00, 0.00
22, 0.00, 0.00, 0.00, 86056.02, 0.00, 0.00, 0.00, 0.00, 0.04, 0.00, 0.00
23, 0.00, 0.00, 0.00, 187500.00, 0.00, 0.00, 0.00, 0.00, 0.04, 0.00, 0.00
24, 0.00, 0.00, 0.00, 77972.85, 0.00, 0.00, 0.00, 0.00, 0.04, 0.00, 0.00
25, 0.00, 0.00, 0.00, -69649.51, 0.00, 0.00, 0.00, 0.00, 0.04, 0.00, 0.00
26, 0.00, 0.00, 0.00, 49003.38, 0.00, 0.00, 0.00, 0.00, 0.04, 0.00, 0.00
27, 0.00, 0.00, 0.00, 187500.00, 0.00, 0.00, 0.00, 0.00, 0.04, 0.00, 0.00
28, 0.00, 0.00, 0.00, 114889.46, 0.00, 0.00, 0.00, 0.00, 0.04, 0.00, 0.00
29, 0.00, 0.00, 0.00, -61796.47, 0.00, 0.00, 0.00, 0.00, 0.04, 0.00, 0.00
30, 0.00, 0.00, 0.00, 7256.81, 0.00, 0.00, 0.00, 0.00, 0.04, 0.00, 0.00
31, 0.00, 0.00, 0.00, 186083.03, 0.00, 0.00, 0.00, 0.00, 0.04, 0.00, 0.00
32, 0.00, 0.00, 0.00, 146571.36, 0.00, 0.00, 0.00, 0.00, 0.04, 0.00, 0.00
33, 0.00, 0.00, 0.00, -44943.25, 0.00, 0.00, 0.00, 0.00, 0.04, 0.00, 0.00
34, 0.00, 0.00, 0.00, -21674.40, 0.00, 0.00, 0.00, 0.00, 0.04, 0.00, 0.00
35, 0.00, 0.00, 0.00, 170030.91, 0.00, 0.00, 0.00, 0.00, 0.04, 0.00, 0.00
36, 0.00, 0.00, 0.00, 173998.69, 0.00, 0.00, 0.00, 0.00, 0.04, 0.00, 0.00
37, 0.00, 0.00, 0.00, -15546.44, 0.00, 0.00, 0.00, 0.00, 0.04, 0.00, 0.00
38, 0.00, 0.00, 0.00, -49008.50, 0.00, 0.00, 0.00, 0.00, 0.04, 0.00, 0.00
39, 0.00, 0.00, 0.00, 141171.63, 0.00, 0.00, 0.00, 0.00, 0.04, 0.00, 0.00
40, 0.00, 0.00, 0.00, 187500.00, 0.00, 0.00, 0.00, 0.00, 0.04, 0.00, 0.00
41, 0.00, 0.00, 0.00, 18664.62, 0.00, 0.00, 0.00, 0.00, 0.04, 0.00, 0.00
42, 0.00, 0.00, 0.00, -64651.34, 0.00, 0.00, 0.00, 0.00, 0.04, 0.00, 0.00
43, 0.00, 0.00, 0.00, 106466.27, 0.00, 0.00, 0.00, 0.00, 0.04, 0.00, 0.00
44, 0.00, 0.00, 0.00, 187500.00, 0.00, 0.00, 0.00, 0.00, 0.04, 0.00, 0.00
45, 0.00, 0.00, 0.00, 55048.86, 0.00, 0.00, 0.00, 0.00, 0.04, 0.00, 0.00
46, 0.00, 0.00, 0.00, -71454.03, 0.00, 0.00, 0.00, 0.00, 0.04, 0.00, 0.00
47, 0.00, 0.00, 0.00, 65688.69, 0.00, 0.00, 0.00, 0.00, 0.04, 0.00, 0.00
48, 0.00, 0.00, 0.00, 187500.00, 0.00, 0.00, 0.00, 0.00, 0.04, 0.00, 0.00
49, 0.00, 0.00, 0.00, 96855.70, 0.00, 0.00, 0.00, 0.00, 0.04, 0.00, 0.00
50, 0.00, 0.00, 0.00, -66830.26, 0.00, 0.00, 0.00, 0.00, 0.04, 0.00, 0.00
51, 0.00, 0.00, 0.00, 30159.86, 0.00, 0.00, 0.00, 0.00, 0.04, 0.00, 0.00
52, 0.00, 0.00, 0.00, 187500.00, 0.00, 0.00, 0.00, 0.00, 0.04, 0.00, 0.00
53, 0.00, 0.00, 0.00, 128877.12, 0.00, 0.00, 0.00, 0.00, 0.04, 0.00, 0.00
54, 0.00, 0.00, 0.00, -55834.23, 0.00, 0.00, 0.00, 0.00, 0.04, 0.00, 0.00
55, 0.00, 0.00, 0.00, -7463.14, 0.00, 0.00, 0.00, 0.00, 0.04, 0.00, 0.00
56, 0.00, 0.00, 0.00, 179047.25, 0.00, 0.00, 0.00, 0.00, 0.04, 0.00, 0.00
57, 0.00, 0.00, 0.00, 159900.59, 0.00, 0.00, 0.00, 0.00, 0.04, 0.00, 0.00
58, 0.00, 0.00, 0.00, -33366.35, 0.00, 0.00, 0.00, 0.00, 0.04, 0.00, 0.00
59, 0.00, 0.00, 0.00, -36113.80, 0.00, 0.00, 0.00, 0.00, 0.04, 0.00, 0.00
60, 0.00, 0.00, 0.00, 157474.78, 0.00, 0.00, 0.00, 0.00, 0.04, 0.00, 0.00
61, 0.00, 0.00, 0.00, 181646.97, 0.00, 0.00, 0.00, 0.00, 0.04, 0.00, 0.00
62, 0.00, 0.00, 0.00, -2078.67, 0.00, 0.00, 0.00, 0.00, 0.04, 0.00, 0.00
63, 0.00, 0.00, 0.00, -56936.48, 0.00, 0.00, 0.00, 0.00, 0.04, 0.00, 0.00
64, 0.00, 0.00, 0.00, 126860.43, 0.00, 0.00, 0.00, 0.00, 0.04, 0.00, 0.00
65, 0.00, 0.00, 0.00, 187500.00, 0.00, 0.00, 0.00, 0.00, 0.04, 0.00, 0.00
66, 0.00, 0.00, 0.00, 31619.80, 0.00, 0.00, 0.00, 0.00, 0.04, 0.00, 0.00
67, 0.00, 0.00, 0.00, -69081.87, 0.00, 0.00, 0.00, 0.00, 0.04, 0.00, 0.00
68, 0.00, 0.00, 0.00, 88686.55, 0.00, 0.00, 0.00, 0.00, 0.04, 0.00, 0.00
69, 0.00, 0.00, 0.00, 187500.00, 0.00, 0.00, 0.00, 0.00, 0.04, 0.00, 0.00
70, 0.00, 0.00, 0.00, 71954.17, 0.00, 0.00, 0.00, 0.00, 0.04, 0.00, 0.00
71, 0.00, 0.00, 0.00, -70736.56, 0.00, 0.00, 0.00, 0.00, 0.04, 0.00, 0.00
72, 0.00, 0.00, 0.00, 50833.14, 0.00, 0.00, 0.00, 0.00, 0.04, 0.00, 0.00
73, 0.00, 0.00, 0.00, 187500.00, 0.00, 0.00, 0.00, 0.00, 0.04, 0.00, 0.00
74, 0.00, 0.00, 0.00, 109829.83, 0.00, 0.00, 0.00, 0.00, 0.04, 0.00, 0.00
75, 0.00, 0.00, 0.00, -63582.60, 0.00, 0.00, 0.00, 0.00, 0.04, 0.00, 0.00
